Fp1,Fp2,F3,F4,C3,C4,P3,P4,O1,O2,F7,F8,T3,T4,T5,T6,Fz,Cz,Pz,status
-1.1858461261560205e-14,-1.8634724839594607e-14,-1.6940658945086007e-15,0.0,1.2705494208814505e-14,1.6940658945086007e-14,1.6940658945086007e-15,-4.235164736271502e-15,4.0657581468206416e-14,0.0,5.929230630780102e-15,1.6940658945086007e-15,1.2705494208814505e-15,1.6940658945086007e-15,-1.6940658945086007e-15,5.929230630780102e-15,1.1858461261560205e-14,-3.3881317890172014e-15,-1.0164395367051604e-14,1
12.10866452515129,6.361277468201442,3.5566408703107038,5.922630364634447,5.683913380939366,5.889499398146497,5.392975548455678,5.777109926842575,0.28986829273051695,4.62757838989599,12.34126723564359,6.424974774088264,5.21059117800182,5.748213509777177,0.1688972016382695,6.035771683755789,5.89280147925846,5.365154218990595,5.737352206722897,1
21.782158266633946,11.300672880965935,5.7855524506427685,10.689989861375475,10.023743225742203,10.700161287209854,9.506202700546712,10.405527470935402,0.36746625491239854,8.299193804110244,22.16805073792364,11.503069047418412,9.289174132186265,10.168942048835987,-0.029330724144370775,10.781306041212508,10.46770212293118,9.66453377624144,10.353065451195926,1
27.24197347356409,13.848683942227368,5.832613563414825,13.508499002148142,12.118049665933711,13.675545191943378,11.47887133930353,13.090741427853088,0.1312888365100617,10.357999232965216,27.71872926188104,14.326535797062904,11.471634319250994,12.362043055815478,-0.7779903305105985,13.349064190208091,12.826035585732784,12.171236258941963,13.062514762924813,1
27.825665838106236,13.780336980796573,3.611796076759834,14.183060401934,11.791556812901538,14.59503945040981,11.13851310794899,13.626121259539064,-0.3485408052672963,10.64390776323809,28.48537501237018,14.707778662588037,11.595106733758428,12.140982730816516,-1.9682850169552992,13.520519909387314,12.762130613686239,12.714517238336287,13.640813153326851,1
24.1122613148177,11.654388668454573,-0.17066732757310554,13.15234412646612,9.625746660308202,13.814163540670231,9.033332770059703,12.429488683171906,-0.8437439223755244,9.51917693675541,25.301979439982386,13.211708041851681,10.122342630673943,10.079805273847047,-3.2181021194295356,11.786245544602371,10.806854216220774,11.706536576836605,12.463039488630693,1
17.683567876619115,8.595704363961705,-4.266975626369075,11.310657944869904,6.731765562898137,12.119835508868483,6.221425377386965,10.376558125906888,-1.0493898200599203,7.721091592516828,20.00968361521451,10.929401990023198,7.951287827870986,7.290542768188863,-4.01269208114562,9.154982345119002,8.028973463892754,9.973713597099158,10.353277485232056,1
10.616378822502323,5.899871326604989,-7.326440329972282,9.685166962833945,4.34752390223394,10.45293742920193,3.8907568269591386,8.489527363218444,-0.7082574584556682,6.094908021566475,14.81629095647546,9.078175664490908,6.079504400557969,5.031898338565863,-3.911445130515979,6.7977034723532626,5.663695484861491,8.454293440844795,8.297116109055134,1
4.858788168053362,4.581970263180136,-8.380179447477438,9.080593153031757,3.400008452862838,9.593264565180991,2.943809298414761,7.589485954117669,0.2673684867752719,5.2989520327896225,11.561862232515562,8.569524194672141,5.256170955986792,4.27829371278735,-2.7463044873325155,5.652245844062592,4.694836412538771,7.868324254843627,7.114237557867159,1
1.6959567836216705,5.030187392437204,-7.17374663839184,9.813555493943522,4.188686107009723,9.913825817615077,3.6888301378967094,8.029790807743703,1.717694886804046,5.579915068784894,11.1640378028753,9.699764713916815,5.712947912001069,5.406249519948833,-0.7492406923090088,6.124096899953208,5.533233337957676,8.477972235920175,7.199881656626184,1
1.4606341536401355,6.903230216407838,-4.243121023213577,11.629540715919479,6.311460484508422,11.285738625930968,5.757668282722742,9.605725909075783,3.2508092915482143,6.70590507902989,13.40734848231672,12.075790354683257,7.125353991489421,8.106671395490352,1.4737040718194154,7.984638814511797,7.904247458661158,10.02574481867661,8.426974554338837,1
3.5584881121461427,9.284778185125344,-0.7122118091155849,13.829224323181803,8.842820482632215,13.164214688653352,8.266149054683094,11.665151909103548,4.347652508261545,8.075940530905198,17.12435519126809,14.796215878437724,8.78127775351715,11.526390922422255,3.118929396058077,10.49626978254562,10.975326470589152,11.865218193987241,10.233271321357218,1
6.767215400305212,11.025089923948359,2.10368388298687,15.542550654281808,10.68780814265818,14.818004744555463,10.146116692101828,13.367220013645888,4.516153713307554,8.949855915810653,20.68565702670728,16.799969883054505,9.872294079081131,14.590118615620915,3.437736519182688,12.70455692808887,13.65962146270257,13.221230126646539,11.846760315931952,1
9.70345357591059,11.174362211187418,3.1697059276001256,16.060198205004472,11.00438364253795,15.60696381763017,10.55116886891451,14.003753292835475,3.4713421087650773,8.736872066447393,22.627939667406636,17.27780357296498,9.834516079017446,16.385710664860127,2.0156871566807126,13.797041458781674,15.009228557194687,13.498565670553669,12.582909893959071,1
11.292775513882974,9.339459040736054,2.0939768467233515,15.104661397765236,9.524578938810805,15.218917630848118,9.177034331094257,13.2623592203335,1.2608382356888044,7.229360206211153,22.175518656980135,15.98315927023296,8.59504241117976,16.485977847934723,-1.0378406616661886,13.392134071251553,14.553352746967368,12.516664808475332,12.098949700183226,1
11.081580193827525,5.8359462957040815,-0.7448520597751005,12.933155315326637,6.65552346809704,13.785034609668942,6.376711514101827,11.34256819786214,-1.710989545334073,4.69485436125021,19.482475720112344,13.32371802860774,6.611360147893148,15.075413990908833,-5.0734418482450225,11.66905622033121,12.455489742865726,10.580848820338195,10.514122962114044,1
9.299033741965246,1.5855745003469963,-4.346489893984954,10.242884291265108,3.32492701453157,11.824310691503548,3.0325156147563805,8.877004218795545,-4.77329015767807,1.7931273509251702,15.512592262960103,10.208612583902221,4.701601207005382,12.852927073955751,-9.063996283405427,9.284101731977898,9.440719750720302,8.362648077266247,8.355183403496966,1
6.685774102666048,-2.1941639890848657,-7.453179791422903,7.921230539625021,0.6376004104294,10.039605050823939,0.2359313130370214,6.691978296233243,-7.175583597430654,-0.6517834107655526,11.63708379533898,7.716610140976563,3.7293477939711885,10.756027087289466,-11.910573609566644,7.1130162957615894,6.533135028811437,6.643186500670949,6.354077713287581,1
4.170020451106282,-4.403473102154948,-8.995976826145162,6.729130920427231,-0.5313325373718255,9.053794879902089,-1.109688205197545,5.501828234857736,-8.316125411756502,-1.9422122792051302,9.106873301725885,6.705929208544831,4.259476195955554,9.60152862000425,-12.79757071704581,5.92452505276563,4.693336859100915,6.01273456290954,5.1745080532661865,1
2.505948523480731,-4.444525530012018,-8.465964120880384,7.029311777363643,0.1356029982274911,9.186121991163635,-0.623184633123992,5.648721122486656,-7.936348048784763,-1.757351943258739,8.593750668633367,7.500539598351081,6.3044136658791805,9.797707755536258,-11.47797081809256,6.106106825373921,4.483932514689349,6.637884660002522,5.16520463645867,1
2.012398677708443,-2.4278161337725415,-6.0802934495061,8.659052258944614,2.2794298636922554,10.327286166373415,1.4104116559387612,6.975307646300555,-6.213794199019986,-0.2734149687968131,9.973282090102087,9.776687068129707,9.280286424358668,11.2122378283166,-8.378333863966343,7.534065793524044,5.881661918252813,8.184554577970635,6.230134222218791,1
2.5023389776676357,0.8647851673909199,-2.6952551414403887,10.989661011848723,4.9922354743723085,11.977145865772462,4.137425966421102,8.88060953098984,-3.7191249069605123,1.8937498911965414,12.412859644353329,12.683511772407861,12.185022075049867,13.250965312544873,-4.4825349208564464,9.632708377004123,8.296034190851348,9.92743066349857,7.862768063938731,1
3.403428876168431,4.247640350395623,0.5080114110399689,13.155122308003946,7.146942902886834,13.430671511121593,6.440134534488489,10.543353203539986,-1.249291751401504,3.901831041980051,14.728395310968766,15.159577034095149,13.933992052583434,15.109495216458917,-1.0386745302774731,11.603128250553407,10.78947558827709,11.012644365031893,9.335672918892309,1
4.003838566050367,6.530905240393759,2.4390844197523722,14.3587973188269,7.810704795289352,14.038256790321904,7.340937349452615,11.227937712826956,0.41971882900639507,4.98053899512712,15.858375817008907,16.31960760417029,13.751461602668723,16.09410809860506,0.835072482013997,12.73132457387652,12.409295849756683,10.773490230673637,9.97155337363005,1
3.7275632491477113,6.921109253258379,2.4638609168709755,14.14777524215994,6.585360710285033,13.446560963962591,6.356070108880598,10.556938135684836,0.7688796980431956,4.703321577293121,15.268094607700974,15.7697701210706,11.465207891782372,15.888795330367104,0.5063117119417739,12.651285793163128,12.512665521947849,8.98270717114091,9.395127351168298,1
2.3350264190036905,5.278388127099029,0.5948966161374333,12.560188562173265,3.75604583803303,11.733210769367096,3.679417530290139,8.659389815650746,-0.2926918687491188,3.146841258686917,13.136480720098497,13.73904950879249,7.597838595470643,14.670035615120703,-1.9503450062424146,11.478158865525618,10.974727558867698,5.952900690275035,7.681222145447634,1
-0.0023148432134096507,2.1525051151278767,-2.541162856238811,10.105104573928825,0.20095174689162112,9.393172236029857,0.13335487065393342,6.144475718745869,-2.383149335209965,0.8806704026781718,10.268449203097443,10.993481797053905,3.2270768525051015,13.042388185905347,-5.752840098117991,9.769456228332414,8.215815326100532,2.4530341739122794,5.348769996760341,1
-2.786622717730117,-1.3997121250987135,-5.944799358517545,7.586795041789221,-2.90780682414356,7.18319265722324,-3.100993380208784,3.9066102981372413,-4.756433556466407,-1.2107983635909643,7.767139794272926,8.566342799421268,-0.34508005549799825,11.819151635066387,-9.644682359185866,8.327710557496438,5.046536894318116,-0.5337523877506042,3.198707399808508,1
-5.39183254213362,-4.170000222291284,-8.601829964442105,5.826138685836088,-4.510840199493039,5.8689997705912385,-4.885399853642275,2.8239461049148606,-6.535847747438078,-2.2248306848206254,6.5986602408327215,7.391585805782921,-2.007848812560798,11.721167958668595,-12.292360056921313,7.91344568971464,2.3794064370056995,-2.1348844105086413,2.0444171160450986,1
-7.284796476444807,-5.186524553643285,-9.81479820469293,5.393662514783223,-4.017943613117647,5.975052701099473,-4.503721348739463,3.4660883578861386,-6.975427039842836,-1.538720563133652,7.22549249594372,7.98796033168053,-1.1887152450680347,13.114006401903548,-12.696198140130702,8.98361513169496,0.9265308943082996,-1.869463530510994,2.4416245218534423,1
-8.18556920929599,-4.012585305580472,-9.402427695564686,6.4446589876897,-1.49388062601932,7.626477196396028,-1.891076173429829,5.911512529142067,-5.6797377753796505,0.9905201832375531,9.442446932891164,10.300846991658556,1.9821496814369692,15.888267659725317,-10.4907089783864,11.54855265096129,0.9871275039063648,0.2092565736826973,4.509984053209851,1
-8.109183110196561,-0.8557560447815231,-7.703075978482319,8.705799073376626,2.3868637570348747,10.526334699984526,2.359331684241156,9.730308657487525,-2.7195713911401818,4.983326867848698,12.472755601848881,13.755363803174046,6.73972012353634,19.511036271203437,-6.0469684535458,15.1865261525052,2.391121468043282,3.5509918416131754,7.899618863283313,1
-7.295888414234735,3.5265127839000345,-5.400380256266087,11.59986169515896,6.5926082921856874,14.069603379959714,7.210341744823043,14.135273290553418,1.3980241609810442,9.665003681886377,15.280278986547879,17.477122925074966,11.952898414249903,23.227946055420045,-0.34195575250918947,19.20886252114661,4.6038031247590165,7.307192407418104,11.912417844255549,1
-6.06856615019054,8.095130948167363,-3.2462091151100743,14.47039017077769,10.10174327412286,17.557154976695,11.53939576716676,18.24618524363225,5.891009235844409,14.118182996897936,16.983764701879974,20.61697288014195,16.494088643883206,26.33447698070522,5.356720072432581,22.90629408072974,6.95197837888035,10.6219742657495,15.736494484215944,1
-4.6857213724123605,11.868292339714158,-1.7867696011435006,16.80511299238091,12.249065231056196,20.41921075408886,14.510712594576546,21.370165255906635,9.93903931577156,17.573193217466788,17.188315248988026,22.639656486276817,19.601552534207727,28.413641953894032,9.890800996883337,25.782440113453884,8.874037084422236,12.90464259872603,18.70585309602363,1
-3.247260633128164,14.213909766632442,-1.1956978408604009,18.39050549886766,12.92580728618427,22.380948411055186,15.82929757268313,23.205429323581583,12.921825998369743,19.63733174315839,16.12793462620537,23.485937962405707,21.07403024171779,29.470660478446366,12.557180742495348,27.697044736019112,10.104450044891044,13.994419762988993,20.498746083779114,1
-1.6986375602658421,15.000689876251235,-1.2655275256741432,19.33649614892611,12.566552151964661,23.504849033906023,15.792080617175262,23.893866571771266,14.57246772676756,20.380090482519236,14.564752708761297,23.547935946862285,21.26301672992676,29.89469592330797,13.27551147189085,28.86181662625422,10.726075375400981,14.16028361997842,21.203010678240233,1
0.06607337080201722,14.57668670283868,-1.557135650010224,19.97248729681244,11.936078409186363,24.105823216284705,15.12463294589846,23.914406341159722,15.010302221675765,20.259080300361223,13.479412795261725,23.47478777502347,20.883614633884893,30.274643620760543,12.549347305008101,29.701329733898504,11.07625903183449,13.94479724014861,21.234256273555417,1
2.069073640877816,13.586068891518277,-1.627708378311938,20.671294391389928,11.805032476525195,24.584902221768054,14.674284079848434,23.867243901735822,14.650868303521413,19.92034449546543,13.67281103277743,23.890924705546347,20.708777330504088,31.14298238382356,11.240722644931427,30.643090947645902,11.558511386062635,13.92131369384247,21.14607024746195,1
4.141182030540597,12.706988471729051,-1.2422209524213061,21.67211248050392,12.638434061270075,25.24961450298627,15.076312904623261,24.23377146922629,14.028020955995933,19.945913958489538,15.443206751654728,25.140902047203966,21.270051337011147,32.75003364147033,10.235183823582599,31.923181262108134,12.442267500869697,14.460980637725415,21.406124899404652,1
5.888598091083843,12.39715710166372,-0.4839853120114773,22.96508154487374,14.409349177365979,26.18435986502962,16.51141605966975,25.193039303047986,13.596353704174703,20.639636397819515,18.451559111591237,27.141265019749437,22.67132831723361,34.94855455501312,10.130479690913148,33.47557376392796,13.720740754764496,15.588112517639182,22.214254893227817,1
6.7702166756513735,12.741508772071512,0.27287050391398476,24.283183187521548,16.609209023732177,27.21818057895651,18.643648679665638,26.561717313047772,13.582289824696268,21.926530656153236,21.829464219881512,29.396973895618427,24.57832075142013,37.22314948993149,11.055613841422563,34.949178485093206,15.090096481949471,16.977590717642975,23.429747543741165,1
6.265591663423487,13.444153313171398,0.5250175967750664,25.210478217990573,18.4489896896946,28.005813422303877,20.759475551030828,27.880536681182434,13.931259815975885,23.394921474577146,24.491501177887052,31.183308964856828,26.37660880418778,38.870054693725976,12.666180635540528,35.84936461140122,16.063451950236303,18.095682057606005,24.634345554188535,1
4.07600372536912,13.960974266316763,-0.13197353769725445,25.357352484040376,19.177353008429627,28.184590396044,22.05631105404705,28.608787738799553,14.371568457011914,24.46842017213419,25.542276965895837,31.817226441683747,27.435976823531362,39.2543880740896,14.322391747662582,35.74765489528261,16.17571849300321,18.42767564001668,25.306054960985122,1
0.2689049601676357,13.705883941924164,-1.808047570552173,24.521682819668747,18.378777610858535,27.529688107929122,21.953825608711277,28.33563715815399,14.544401004598049,24.62484236720899,24.607374952323127,30.907193423343383,27.365485005534914,38.04071135278909,15.35885055777072,34.46229049853285,15.184334633071458,17.68946356267779,25.0205451906089,1
-4.66816046060222,12.265915314742209,-4.233876124219085,22.787919038579503,16.15634431856003,26.060359535389587,20.32829526320584,26.945035355304793,14.163554283492568,23.595007179600444,21.98251736224736,28.504699200998306,26.18248319929783,35.33178843137826,15.347893376614206,32.156172885712195,13.198874442153857,15.955096237811636,23.62120667781776,1
-9.90830616593311,9.553513674599776,-6.815627202869427,20.519935899221384,13.122495772405685,24.05081950765549,17.576144739149306,24.668581810511483,13.141352714427812,21.468720627987107,18.543313210247096,25.103089886985806,24.29823821699223,31.653700156936075,14.258576508426364,29.30981429440576,10.683373718517602,13.649719520059298,21.29063028865353,1
-14.489353032530897,5.854243967080033,-8.814673739321702,18.24970511428099,10.206296622486414,21.941960368096158,14.489935643246522,22.008958691382755,11.631846795273,18.671504751505466,15.44738083974989,21.48261234746829,22.38087425930931,27.79864294779687,12.460357996363557,26.57506377284376,8.325922042698227,11.41017025834608,18.498980215295198,1
-17.579951062405183,1.7428664932392421,-9.596504937827504,16.49935504164788,8.337506566033035,20.18505140102806,11.984060746006826,19.563962627085218,9.977883093513817,15.823922054422134,13.734327410066983,18.458156770731797,21.114242115314553,24.584743737380716,10.571426514851252,24.562308959148567,6.812245128918906,9.861806050809781,15.847201175881938,1
-18.71193543351822,-2.0801011352105228,-8.85261631142,15.60719195251536,8.130469780576615,19.087190013735995,10.781704983703804,17.82582390714385,8.594405808096344,13.543530981149113,13.972625056420656,16.626548325277348,20.959812164110126,22.62459346642256,9.22365681086656,23.646732621945056,6.59346327575112,9.401796002585444,13.872450200613773,1
-17.909166944129886,-4.978157911892044,-6.711264211292778,15.626649507267725,9.681474216312557,18.71648517280722,11.174582018715757,17.03171955783968,7.823100859647754,12.260547955626432,16.07859424884372,16.201047109183225,22.007112753464178,22.15215253790294,8.825304691755889,23.86548143865129,7.734074557671056,10.07140128805262,12.886198899947733,1
-15.671771239433024,-6.5334603840608745,-3.699203310813639,16.326419856875873,12.547220429929796,18.90236691465362,12.937730409157854,17.114083408454846,7.813728629677262,12.104542919731614,19.365179002905457,16.981740382147663,23.960183766608548,22.990693430282786,9.415599835784063,24.932921892972182,9.891824300850514,11.558728647509712,12.89650489747244,1
-12.824225104767292,-6.637440746506004,-0.5764644604717302,17.285297322955095,15.903478021326206,19.32281038183111,15.423230012259715,17.762136282553733,8.481781056917121,12.899130990978884,22.789065935974808,18.456895596538434,26.250418414627365,24.649087735288056,10.668021023345831,26.36586001901024,12.43307037697477,13.323880268206144,13.637180267215182,1
-10.266629952510518,-5.490334838658748,1.9112542002224246,18.053842730664645,18.8319837318727,19.651969816215228,17.802188952841586,18.572098602092094,9.553527021637393,14.260867853913068,25.316687299232495,20.001453114716693,28.23954289136619,26.50439356980215,12.035132029104052,27.6733799345369,14.65127697195396,14.805663921649385,14.692947703154967,1
-8.720765880268532,-3.523321970387364,3.2585912743046928,18.31467511634747,20.621282378090893,19.699536669633453,19.353611233658125,19.21256263498302,10.666691224712112,15.747764790498655,26.251887301121418,21.089335875669644,29.42238342554783,27.99709783622617,12.967818836703369,28.52688315023212,15.998352086550282,15.621914237042738,15.658579709792518,1
-8.534489747153108,-1.2806037553598943,3.3448050951846424,17.98595511773152,20.9863057146328,19.49009121746855,19.70512969596344,19.546047621546638,11.500993356153902,17.00875085146126,25.4438768108274,21.445940170703746,29.566912073794928,28.776872258992306,13.128601623500296,28.856011310852924,16.258191877248144,15.696495614565054,16.278839286123336,1
-9.61984690655328,0.6975330788536055,2.4303201865313824,17.22835448686312,20.122786782234815,19.24429513607453,18.933108608135186,19.655465232197948,11.88479604493616,17.874657753826682,23.27751776940318,21.090990954702384,28.738091035223896,28.753267395956843,12.516483616411742,28.832858380236964,15.591130642682382,15.260794591288636,16.51206456526776,1
-11.517518800595184,1.976648517055653,1.0398871119488882,16.367699446923066,18.59494098208006,19.275903378935688,17.498320288900022,19.772714061202787,11.83491223313882,18.36662447367492,20.49480116939106,20.281568751390612,27.22221864668709,28.054040458479008,11.453305571075205,28.75791018811419,14.450392530953216,14.739982027235568,16.503552404483816,1
-13.560810251107018,2.2956647010279747,-0.22035444336723586,15.762989949099952,17.108100864771412,19.842234130522307,16.04922438905318,20.14214994572311,11.527467206158985,18.633236897601776,17.91647982251963,19.379699138234855,25.391215434811052,26.924558557302834,10.44765004117226,28.90244064492096,13.402317138756887,14.571432962316694,16.487357260006632,1
-15.083453620669795,1.5924060796463766,-0.8532542724744071,15.677148797948906,16.258599208758323,21.016882701147036,15.178876330717669,20.889071349651005,11.220993647940137,18.85585998931306,16.177880912528128,18.704057484794767,23.572030196029385,25.62776671588649,9.99647645551205,29.38197183186213,12.924339230156683,15.030986741382668,16.66809812167555,1
-15.608332596775554,-0.0033343560458076902,-0.6055042750757831,16.193624681457866,16.34957928010796,22.626352953047643,15.220592426588723,21.941650769051485,11.154836628024865,19.16157880840146,15.563763518350616,18.434308030892705,21.98049071159506,24.376063712566857,10.396479201156824,30.103441834226235,13.250984933914024,16.13078231071031,17.127426227142813,1
-14.965313743839658,-2.1908290488825632,0.5047399373584796,17.212555499374126,17.336238375615018,24.29009390312197,16.159847856228016,23.047543475560552,11.470716759590356,19.58754891515383,15.99712518701065,18.59188547242043,20.726547081054385,23.32835939272729,11.64982448852283,30.813891312494167,14.327073354693395,17.63033315911354,17.800538489536056,1
-13.29714466417822,-4.544458834442351,2.264879133854501,18.520919915044423,18.911863718389753,25.54997330610511,17.687767368691638,23.88074009182729,12.18371949518289,20.1015123525843,17.173701694442773,19.094213099029385,19.88387206994951,22.63235702702149,13.485879165062057,31.22885280034326,15.874183752153579,19.15301025071476,18.527899561108097,1
-10.96620702597564,-6.563713531502013,4.395224328976471,19.907100417775492,20.68452137075183,26.05126879249671,19.36589874074419,24.203221866585213,13.207616753874708,20.6694963769138,18.758251623369983,19.85811046586882,19.57033800610595,22.495763779949566,15.487709505263435,31.19819496370359,17.543550101246623,20.362175649897925,19.162506131209422,1
-8.432844183139109,-7.769065756644771,6.668906304307008,21.249687272288394,22.361259523407337,25.688395036426456,20.82161006700899,23.994559469434122,14.407766170986742,21.317453857347726,20.554743022898023,20.86530700948646,19.984931622473674,23.192820661208238,17.263005031861496,30.811199828447993,19.069896571886755,21.110385552267406,19.666486069230785,1
-6.127531783567303,-7.797507556610558,8.982624417203903,22.56358144191563,23.86939835984119,24.67288125746074,21.903896919717145,23.504100687399035,15.6763255115716,22.165234616912283,22.577610583144196,22.195450695494028,21.377369893729497,25.004405434098842,18.60632268061464,30.405646169014688,20.382170591486382,21.514083311150923,20.165085272099386,1
-4.362446417901006,-6.497853001285466,11.337635101571394,23.97601768887863,25.362508639260554,23.490892239985758,22.731034599286776,23.19304424541217,16.98049595867132,23.398483085211783,24.994020636035863,23.979330443785592,23.943506877560687,28.119968038013727,19.5680171946771,30.46460658330051,21.61504940534511,21.914212100344322,20.921532204989788,1
-3.2835272295487585,-3.988446770695702,13.773341625403935,25.652036553518247,27.124441091532546,22.759303298454412,23.624634396687668,23.583337654554146,18.371580541626802,25.193387883566018,27.981320183291455,26.308875659765448,27.70238510175213,32.51586320283564,20.41651632195656,31.43826733908706,23.03029214426188,22.7459710467981,22.243588756406822,1
-2.888919957515941,-0.6757891557158081,16.26780760709671,27.689306679275315,29.398625017655785,23.018389771912833,24.94252330366095,25.05175650332781,19.937774407665003,27.60717585298088,31.55922062796441,29.1301502009621,32.39199262237939,37.832164201309475,21.494941509936822,33.54155328425571,24.866021403254955,24.351276843601923,24.33875088789227,1
-3.085871806540921,2.802195721688428,18.664436795202146,30.03442761095506,32.22732416913175,24.553275922208307,26.894452533895347,27.661049360274227,21.74198784639748,30.496248163785445,35.46953317770746,32.18535352071254,37.45305293030356,43.378930756778864,23.053886085297748,36.619476500275425,27.187677834590747,26.81740468722985,27.192106669733707,1
-3.7308814613350987,5.708938325420939,20.68215500491761,32.45212071245643,35.38196878762428,27.28660846565391,29.42373411663356,31.097295993294765,23.76998294727973,33.51028517983813,39.18922263031006,35.0414463797926,42.13542216737836,48.269439534725805,25.128599026039215,40.151744700745624,29.81335917705661,29.913083554726494,30.521701001364352,1
-4.64867623678003,7.388412002598555,21.996026434979154,34.59629210592664,38.40882801550878,30.78847230219569,32.196162506100656,34.736467116247326,25.9039294161392,36.165625349841015,42.07323501817016,37.1845986463877,45.69234367948819,51.643335019444535,27.504007779180775,43.38609095177558,32.346709159740485,33.14431445714111,33.83041272872136,1
-5.650092082723226,7.428810702834099,22.357765063115483,36.13633624859999,40.76951539342713,34.3961443766812,34.69963583104905,37.82318148168556,27.939044853013282,37.98003769084558,43.56722335305671,38.17832717080729,47.60062177783549,52.929627154896394,29.784459435217375,45.56510190684732,34.29785801925858,35.905550064986116,36.539361159851545,1
-6.528946605272662,5.773827584654115,21.71542719374359,36.85735394549875,42.034159147016716,37.40883363695884,36.42560061679764,39.71354061935194,29.64366068439663,38.637221046739576,43.41922529726532,37.822720885520795,47.731314391508946,52.063323295850736,31.54506675535166,46.18614658940584,35.2562133213015,37.68053559262859,38.17218529144412,1
-7.0670960074892815,2.7518722526635755,20.278739878005034,36.72731577535969,42.05023329879785,39.285646793316474,37.06061221043096,40.08935589915662,30.83459593901308,38.11180455400114,41.80802538587978,36.258008851444686,46.41785188568573,49.55713013635154,32.504429543349254,45.18767523462951,35.051031578248484,38.21580739646011,38.51728521751082,1
-7.067587537251221,-1.0023843748216417,18.490296097332017,35.93072391907696,41.008824596684484,39.79945190936046,36.605334125537865,39.06872714331509,31.437466377320245,36.701244998191086,39.31256482073316,33.94345268350365,44.3544950036253,46.37705412268563,32.6392003007325,42.99160379601079,33.83483165817408,37.604821332133575,37.70761405723553,1
-6.405878775409514,-4.714619113606455,16.899002937571886,34.81242603522916,39.38749462248757,39.08445656633154,35.381277040792575,37.172848941229056,31.510269329346045,34.949703676478364,36.73439978353962,31.5279685670768,42.38073421361141,43.662397970023896,32.195397132609344,40.387114251175106,32.04819163104736,36.25027851936385,36.18754381400484,1
-5.086412219082895,-7.673549808259944,15.980795823600307,33.74308572307689,37.78901832485071,37.57055309916737,33.92091437599823,35.1573866415399,31.223606358039532,33.484073109011256,34.83453831023263,29.657483536923458,41.219778994946324,42.3695551373647,31.596486381569516,38.286614872429084,30.27540616758466,34.718034247469035,34.57460598791414,1
-3.2842577304195775,-9.409933227753356,15.97970833154229,32.99238581927995,36.74077459155144,35.84262478427108,32.78835728065782,33.77255719827442,30.8111816670908,32.82198958947831,34.083046067640424,28.774216160331605,41.256068525797644,42.95203970473336,31.29033836536255,37.43966805099553,29.052614061062155,33.54489714558672,33.467561877930265,1
-1.3427082387885947,-9.793575389405698,16.819376636171107,32.64679533775467,36.525599233496685,34.469974006201795,32.393141682422325,33.530276321037604,30.499580300796364,33.20890025004824,34.51477936333382,28.98460092009557,42.43342416470999,45.1831406037642,31.574927107491735,38.19900728694628,28.691754157487598,33.06923256402859,33.265555510938164,1
0.2813626828715854,-9.036549962112685,18.124076442482572,32.59835588048771,37.10649349044417,33.85962947901549,32.86585377494796,34.55924755407611,30.443577853887952,34.54636521384365,35.74062198779837,30.03338003779862,44.305702593257045,48.22025938914466,32.48281978023701,40.42009958034456,29.182951636692717,33.34187483105758,34.058087239066694,1
1.1200222235358128,-7.593089659037396,19.34070850633799,32.607303187133034,38.164942629965005,34.1689282244484,34.034232801915735,36.58661483861049,30.687186475047127,36.43085860012545,37.101907351435806,31.404137460122826,46.216577731518015,50.867635705175715,33.7656000801771,43.51739252102816,30.209188215656273,34.14108598027235,35.61746613118009,1
0.8391990263975354,-5.990976354401233,19.941208812345227,32.4273297273438,39.25555101055217,35.30973171633466,35.52288084658654,39.06766917669701,31.181764772030533,38.31147313087359,37.938062123650425,32.50690973561619,47.55752583894953,51.983092060118416,35.00843183578071,46.67936458928552,31.28397186674676,35.09867934974407,37.512320990693,1
-0.6486571253231325,-4.666479607975477,19.616184179150732,31.929316978698775,39.99245701976097,37.01751810942357,36.91369376038056,41.391484483791565,31.827402768441623,39.68865986561183,37.840874086058136,32.88641626035648,47.99057777045793,50.88580819592777,35.80095192367115,49.14422495795393,31.94280481694998,35.864734072419665,39.276900836447815,1
-3.147089977969221,-3.8568449583648405,18.389149542114414,31.174480646328867,40.19713672215448,38.95056657188562,37.903497325297614,43.0880278612079,32.51870846492665,40.28513012135957,36.800460874893425,32.37231316075982,47.5546683642828,47.62774500082473,35.90494500998667,50.438981363499465,31.91744379378071,36.24754313768448,40.573989876184896,1
-6.216010075198259,-3.5848174506463812,16.60684710165037,30.398616491649964,39.947541647161486,40.77773880580646,38.39545540811955,43.95958428882411,33.174864601319435,40.1249795743151,35.18887532317458,31.114316420116033,46.619568934178965,43.00797019149599,35.34571601303704,50.50206082339772,31.226380312580204,36.27149892090702,41.28941022156859,1
-9.276349739766857,-3.71712808885045,14.823678309934365,29.926537944462886,39.52791009664028,42.24426587423097,38.508902898248955,44.10883011131836,33.76009039887758,39.50946171687793,33.60616013229167,29.50641156634479,45.72312203069122,38.336995825342576,34.41109527717704,49.66233949171858,30.160322942938148,36.14723461128871,41.54268581799699,1
-11.786975466280397,-4.089459788494156,13.59374188995007,30.026236780800552,39.27974651312668,43.18580546940402,38.48470755192269,43.84073804145069,34.26433130666586,38.87709139166691,32.61864428847091,28.010935994263424,45.33695304613695,35.016624711793206,33.52832493395565,48.46960232962316,29.147860658444806,36.14874826079239,41.59260394244792,1
-13.417403317373136,-4.639981251268056,13.264836578709527,30.766482533267258,39.42989980931535,43.507819091704455,38.545790903257064,43.49650949807398,34.67703833413906,38.61960036791765,32.51250221067928,26.953312099337833,45.66601076769246,34.06023759803559,33.094282200748594,47.45662244334799,28.56607189957409,36.46193262049387,41.69416208402632,1
-14.163745229249422,-5.487757782737512,13.841675013241357,31.937879151041784,39.96777051579344,43.15570701608536,38.77263364846799,43.288213210293314,34.96194432014108,38.917199530786036,33.15610200513004,26.370443504988305,46.55734555021589,35.725995724207884,33.30886450357819,46.92104843599392,28.56721867586158,37.06885798801739,41.96514420213033,1
-14.347287197628255,-6.909010240238232,14.971109755047356,33.08441744480978,40.63052274650164,42.10567257602279,39.05659765310326,43.21100049708945,35.05785235781036,39.6664014244059,34.027874315722826,25.97928082609296,47.56267978220658,39.40651127372154,34.093087730459764,46.821362931561126,29.000082867843744,37.726995936101744,42.32751983850873,1
-14.520791435019637,-9.242397732537068,16.055204896291965,33.624772437781665,40.99216232431827,40.36956009615447,39.13709504971655,43.05226845735686,34.897433836232075,40.517496436617826,34.39588402731678,25.260718598061644,48.11148337261542,43.79623466418722,35.111438787040505,46.80745010449609,29.44040698802184,38.04059299817256,42.53332058633361,1
-15.29541802567452,-12.742735428602392,16.45451979219196,33.040669417067654,40.63606768064445,38.02518028861464,38.72511547168762,42.50610526653099,34.4508673503613,41.02143903827902,33.590380131226816,23.64854767294836,47.74158996966332,47.301123081336236,35.90869782112266,46.38684494210331,29.337649476829053,37.614317597277115,42.28099446324336,1
-17.144386018868964,-17.443290190425394,15.696930968860961,31.059530170462555,39.330730028412866,35.24470269218679,37.64838826785962,41.33523055152855,33.766857827968366,40.818240041013546,31.25054560574491,20.745927561280748,46.289011879413096,48.55069872105672,36.097490262956754,45.15197830309788,28.216960361669578,36.21982858751414,41.36312350977694,1
-20.24193890660179,-23.076318588244526,13.633324018510715,27.77396510547292,37.14303433803627,32.30425382605854,35.95974100921594,39.51660686822121,32.98575548026358,39.800856056028046,27.471074114158082,16.501529292142934,43.95127104946017,46.840855123038395,35.52122936569789,42.98339804595506,25.867750673578435,33.91471221637775,39.78828828442564,1
-24.396783590309358,-29.09556095476689,10.483480943995392,23.639756585093718,34.432671797648474,29.551994125319652,33.95085614805911,37.29644282609466,32.31210423977401,38.18163349396462,22.77323586106693,11.265930456759374,41.210300274831624,42.3541687301024,34.321698081576734,40.14024428543523,22.43797327269281,31.054234757335944,37.81686275489993,1
-29.100057220572122,-34.79169218394371,6.753635913588465,19.360084856987392,31.73233844210225,27.345438013300914,32.06710061931561,35.1418506569594,31.956983255421715,36.44209329309659,17.92424493735718,5.72045606723756,38.63989742339468,36.1018371831795,32.89466397921126,37.211905710437364,18.409112381111665,28.19540304428653,35.899846181331625,1
-33.685629483414985,-39.4858336775399,3.050501094704034,15.675448448853093,29.546582424873954,25.95538129793268,30.738527093266097,33.5821135334544,32.0555333137049,35.16515017636663,13.662799579932527,0.6824639559809722,36.66740934714374,29.581959536959012,31.732833085696104,34.92565813808151,14.446345495172256,25.90907088930751,34.52127036609226,1
-37.53536119586634,-42.71809777924697,-0.11866744784688513,13.142244351200603,28.160255337509557,25.48486670681064,30.203449868774808,33.011985438400934,32.594628700780135,34.82010040366472,10.446906690863024,-3.134457915442629,35.39995697909758,24.298684521817364,31.22232523624811,33.89356535525157,11.189490825308573,24.58211970926534,34.01576926001712,1
-40.26131433973856,-44.36564932460663,-2.496581788689403,11.969941593034552,27.527324041210964,25.83025705234357,30.39372822602363,33.53163369861114,33.38911184115941,35.5798807153243,8.315045500481228,-5.326250433306122,34.580943142413055,21.297753067433728,31.473506423193328,34.389690435721484,9.052772122867616,24.279140593042637,34.42944019290803,1
-41.799858392540045,-44.65523719005805,-4.118005263933864,11.97491454109392,27.29243753609856,26.699333456140124,30.936169810378285,34.88549914761573,34.11682598392684,37.238567802255766,6.923672219138036,-5.899295378805747,33.69579334297517,20.870597150610415,32.25780181706486,36.2360309609386,8.110841586256194,24.720187463014874,35.48115800317451,1
-42.4118589974185,-44.08301842149299,-5.253828138680947,12.651510207470894,26.925210326518073,27.682741012078154,31.263592480873765,36.52170597164702,34.40057204128386,39.25258011634009,5.723144559994196,-5.255909913760664,32.18255989206845,22.52235404287366,33.06983702338816,38.8383893376375,8.091713569293168,25.37147666045296,36.63399261528005,1
-42.56311720066647,-43.23465851102915,-6.258613386609103,13.357213797918194,25.945935567917818,28.37052768277331,30.826437622689753,37.76927434489009,33.925883474320315,40.90796153783042,4.222512039649465,-4.040248486795985,29.702879531947683,25.199482109418238,33.306553020765115,41.3709084620258,8.500605351794427,25.642514199792068,37.275352618800994,1
-42.74315470141636,-42.59445274119405,-7.405078518669439,13.534173088984476,24.13616130129518,28.469724439534613,29.30908285249171,38.0628322386797,32.54838780051283,41.55116891010499,2.2275135306111107,-2.9229228028957532,26.320768408501433,27.688235706840572,32.48684233762875,43.0383977775304,8.810533237608906,25.103660386120122,36.93222267849711,1
-43.29169718929168,-42.404210235422966,-8.763163293248418,12.88689388222636,21.65195721256251,27.8823141223114,26.77107177830727,37.13395430430156,30.352188221694487,40.80152850486855,-0.04672126541790093,-2.3930354999691437,22.526689084176773,29.033847574441463,30.440497131372847,43.32430689782303,8.648233646349778,23.644954751951502,35.44279537418594,1
-44.291156620436034,-42.6302045890157,-10.174662844159242,11.456693511990814,18.99153318516632,26.717475922319068,23.65394728886697,35.096806970011585,27.635952128626222,38.66817512454831,-2.042555072753679,-2.637260197203517,19.10019054389724,28.82910237010951,27.383463472551494,42.1361126831733,7.90474981784101,21.515622109988723,33.01815010375857,1
-45.54863199343778,-43.020386043229266,-11.318144461376136,9.585202174130115,16.836960804209216,25.249604142193224,20.65854585127883,32.41204676583193,24.838661490509068,35.54592693029192,-3.067799704085462,-3.5209117344862926,16.86492711547249,27.292219678547443,23.860504106634355,39.81601735875637,6.7516169340512135,19.243926769760844,30.18474258901761,1
-46.69403802644527,-43.25844527979979,-11.852790652146838,7.771570213731737,15.801067156904773,23.819498977861485,18.50675200749608,29.722796336698813,22.40721432049491,32.076286113870644,-2.585131687428301,-4.6833403736154615,16.370300362871436,25.107997006195703,20.552135367969033,36.99814788038993,5.543716099629326,17.44798512889046,27.605114459686092,1
-47.34383789147411,-43.136009054269294,-11.577583073680453,6.48298133374793,16.191129074865838,22.72076319248196,17.690437544680787,27.634165037451233,20.666101567235636,28.938018873763053,-0.46099898880832485,-5.704569909895387,17.672770253894935,23.1138831686949,18.041085203077134,34.379463821576294,4.6584727014544915,16.614926586729993,25.853944761041173,1
-47.268030236847814,-42.66658714539784,-10.529754059958478,5.99059882589221,17.873710779813237,22.114177865624935,18.29426181304378,26.51555906260575,19.731753067402128,26.636699257039552,2.9258236972350855,-6.27261003435043,20.282771152436855,21.959998676090777,16.615694239955783,32.486998040846906,4.339647756672299,16.93069813459894,25.227430944309717,1
-46.497429907310746,-42.10349343171836,-8.98623045688885,6.298724802038696,20.30406152196149,22.00032027863862,19.96657347764322,26.40214212520889,19.502315275713517,25.37656322988753,6.771267712752008,-6.28204703012841,23.3092662359669,21.876601710687872,16.191164738271492,31.53186106812515,4.612233255562468,18.226300325631016,25.660373002493166,1
-45.33914844875158,-41.85330276417289,-7.372033840921382,7.173655181344878,22.698827097753497,22.243823195683937,22.03512518586123,27.013417988639258,19.70722553914247,25.034403940551552,10.089841177855392,-5.849744086247544,25.74207037888797,22.622752970027566,16.356514723704365,31.380138690199516,5.2829779873358005,20.044823807022752,26.763964077885145,1
-44.2768735480038,-42.29706123952663,-6.107833854421556,8.265949859779695,24.305117061155407,22.65036082359664,23.742927254531367,27.890288539640462,20.01916980621323,25.255265681644662,12.044272485669422,-5.230431730842187,26.792173863455517,23.636430347376987,16.556622190053343,31.65841390028892,6.036534195328608,21.813434710942964,27.9831146081696,1
-43.80568564955447,-43.606157547084685,-5.455363570848665,9.26462369005465,24.663330969069076,23.053595811668647,24.51387231655847,28.58641318903305,20.17710533739696,25.61673281349911,12.231753453654989,-4.683411572582166,26.16093221539359,24.295465503541806,16.32138673509662,31.934007466434952,6.579349138645701,23.049963851476413,28.80595268225072,1
-44.25638954217227,-45.61777797601124,-5.423180539904326,10.029202685569851,23.76595501277584,23.390227793106966,24.149370132556506,28.843293235249668,20.068472835309812,25.79644558778833,10.824828857885846,-4.341392345714837,24.141320528167558,24.202556458553115,15.451790892916735,31.902698038558473,6.771543972427714,23.52890847339732,28.947991333290382,1
-45.670432569498956,-47.82631306209089,-5.77250864226605,10.638199971708824,22.054663236326924,23.72091644497663,22.889208297322824,28.678970054757546,19.760729630474838,25.6840117977333,8.503581998408917,-4.144572285617976,21.51632275170898,23.374451858314046,14.108735755684252,31.50791919994139,6.689410722730299,23.342382410256437,28.44387988966754,1
-47.77107752987774,-49.493892666212076,-6.113975890600577,11.341791814893142,20.261407918915506,24.194713424818698,21.31616257735596,28.364937928099483,19.462667244570675,25.401842070902426,6.218934360454459,-3.8482034150115476,19.29321389329844,22.250183680347188,12.753438159279813,30.955330898470127,6.599121198388015,22.845291025554218,27.61930348959911,1
-50.0476235862602,-49.87772068509304,-6.064507802274188,12.425586228924868,19.136604615642167,24.976154260722684,20.128805072392325,28.29076595822477,19.42772442531066,25.21992000217288,4.853498149554568,-3.1324034749391276,18.353406860838103,21.486843785740604,11.961185377114562,30.60638695427156,6.838683015426052,22.494328214401857,26.944009373653127,1
-51.907257016992595,-48.4812328833876,-5.398861359262998,14.059950437285824,19.179148211223538,26.164235629379085,19.878903452509856,28.789429668779132,19.845038937895424,25.420461275590146,4.9153116779548665,-1.7504533584957558,19.153841793684443,21.70117854278821,12.189151233122676,30.817492058848313,7.668847814355016,22.658971621199473,26.839093116511002,1
-52.851075384597124,-45.24823484683354,-4.133502262777914,16.199399269811412,20.465080295180094,27.7327764948483,20.771151997292336,29.98702570558419,20.76589228162325,26.168808813800077,6.372693798093872,0.34818129297282563,21.58465905906425,23.217427671384844,13.587786536641742,31.784565980119915,9.152717154562799,23.476644874310498,27.5115221669692,1
-52.62292898028962,-40.629703219780396,-2.5210344773293776,18.569011482277443,22.631406129048724,29.519564366833574,22.5937734424327,31.737532384407032,22.082357616296687,27.439584243925104,8.691590876966902,2.962379839414824,25.021261793628465,25.922484935182652,15.925449892251912,33.454370604032896,11.109171284771474,24.802645716655956,28.874985382208216,1
-51.276227101612854,-35.503678263683376,-0.9582901836182411,20.742926590603663,25.015226331972034,31.261643605092708,24.797811425063422,33.66213133917702,23.56238029963595,29.02029939461458,11.05323691183872,5.669091866664581,28.545998769112682,29.291282513534913,18.65326226781704,35.53378673568868,13.1557133764784,26.26572191065622,30.5801100451923,1
-49.13283799343205,-30.946677036920075,0.1715394185642311,22.309717814435615,26.910018719439883,32.68579771040086,26.711135296298174,35.29652007868566,24.93720847291414,30.604044349284255,12.680626467250319,7.957991247095018,31.273806504323865,32.586817190271844,21.09790571454559,37.606608276496694,14.845170648398966,27.42440461852873,32.1575977647112,1
-46.66908050460144,-27.941613653769082,0.6413773409543705,23.039065162461736,27.827047707062636,33.60484701318034,27.791144578681113,36.2721500207939,25.99811079796121,31.91692707164019,13.136045961984802,9.401045735984132,32.6474832794433,35.14315530131601,22.70229142831763,39.295478134387615,15.825596108748123,27.94523121879402,33.20338044800051,1
-44.378360824621645,-27.10876934452107,0.45281585257081935,22.98348878103574,27.66160452533742,33.981778859522855,27.817294078523787,36.45769230345358,26.657182558976555,32.822757847807004,12.472517671527562,9.799351197513177,32.59719844099496,36.61403756901537,23.219466702792825,40.40038641987371,15.962590586274981,27.72978084048223,33.527650268966966,1
-42.65049656594239,-28.5432400479034,-0.1906833035551647,22.467593184401604,26.70736337330236,33.94182329902651,26.95619021693219,36.01005343118377,26.957368503864817,33.36522998923799,11.186906981453264,9.25632371990401,31.52014176408994,37.088003691747545,22.78637050284662,40.96314242899003,15.38171239192692,26.945637161567465,33.21707270683978,1
-41.693115931012265,-31.790684618113712,-0.9792350807118397,21.976716308090964,25.52680647669356,33.73662821130867,25.68770233749315,35.32109300449169,27.03483234070723,33.73766715007634,10.012288253559998,8.157172514260866,30.103910411558832,37.03715318044837,21.85746203999561,41.241217418291384,14.422006280672251,25.959977196878373,32.59417567447891,1
-41.533153240939534,-35.99129870364988,-1.6379199045680806,21.958738969515597,24.713370670494033,33.65461104288247,24.60494043215312,34.8656733972209,27.04676694896717,34.18140055019028,9.60452278516888,7.036988420132595,29.052633584104992,37.1030777989044,21.022093717120914,41.58655604867757,13.498796441360529,25.184862009234966,32.07640000806711,1
-42.06955725372633,-40.1353932967871,-2.049781357631722,22.621797772354082,24.644595926072128,33.914482043222115,24.173802500703875,35.01305167365655,27.096086070789248,34.86245207847679,10.257516175313743,6.387164174844765,28.821683785347194,37.80456228087634,20.777115501898315,42.28176326220029,12.938096661908817,24.902430558179525,31.996055514836012,1
-43.143413672395575,-43.33276742864535,-2.2984622629266327,23.82312212192197,25.326808386790084,34.58755724213355,24.545179003409334,35.879149583364466,27.17852034517327,35.77422854996237,11.764524024957204,6.485278599015297,29.460885623716045,39.290993057274484,21.31995454589978,43.408065828923895,12.852562535788667,25.145007659977825,32.45660172595888,1
-44.58693922891961,-45.020855427558104,-2.610119433382313,25.105106855329574,26.39461356418532,35.57929409384352,25.500035046837866,37.28299427662749,27.187950293771802,36.72263846939025,13.486779447468848,7.307498067935555,30.630200936752626,41.2537124781692,22.47324476629017,44.80155860311758,13.113124794574178,25.6837445090181,33.28870815175993,1
-46.2499705488133,-45.075812170394656,-3.2304193586540633,25.856171264310266,27.256177557990608,36.66668332537353,26.53541823871543,38.8131364345391,26.963136427672463,37.39001833282004,14.590010406982538,8.526403272624759,31.754096837179763,43.02487674706579,23.74547333595202,46.10781483775813,13.413025808676132,26.11897454369474,34.11466931973026,1
-47.98382201324569,-43.78096765717152,-4.276337169794556,25.561406959408508,27.339569076727525,37.58557683199788,27.07343987585944,39.99058130997363,26.377689588934256,37.471096579447995,14.381932749671723,9.622789186451358,32.27014622617361,43.831101975770714,24.537545208472842,46.92234078288882,13.410736785532329,26.05049488321878,34.50825349910137,1
-49.62385693755619,-41.69133655848282,-5.634982792327869,24.047678450351505,26.33585138759207,38.13374388478695,26.7018733303356,40.46068670593749,25.420575177359442,36.81550098878291,12.60388807588677,10.061951118730182,31.864277642697317,43.112728294093316,24.38803922704361,46.959183818954656,12.888882390136096,25.25441619612392,34.18145606181669,1
-50.988969186258785,-39.447138683584214,-6.956508509836972,21.628293384021664,24.346351041053428,38.252624264744675,25.356432796577995,40.142412469721556,24.231613640551892,35.523416848419785,9.570327066374718,9.477511752660174,30.59394426717386,40.783006072347575,23.16656172974892,46.18191408290905,11.868454586554348,23.799938063585916,33.1260066197704,1
-51.914407236246625,-37.59729498825118,-7.758442595220088,19.07249984364203,21.875144771172017,38.051486997335964,23.37280264309192,39.2708420519898,23.08256585485355,33.94868579887349,6.092302750511721,7.797233883374304,28.86674445184955,37.31549610524253,21.151864925635913,44.834428423580896,10.62374408651869,22.052688196707287,31.64945362978383,1
-52.32409877788968,-36.4946672647344,-7.6099988985891045,17.39307968526698,19.662448975915407,37.76880713835821,21.38458930591148,38.32038844612547,22.30907805239768,32.606434353806755,3.2073351160584807,5.263519019060765,27.2764185030229,33.62944297855851,18.96344877557372,43.37106400144304,9.585970736665631,20.55882182438912,30.28815512203111,1
-52.30946777809132,-36.28705216355113,-6.334557882599213,17.50852773529662,18.414344071905358,37.67563035403708,20.096503365653497,37.82519415116891,22.200084961831084,32.00257402819208,1.8028847157999326,2.349853669510573,26.35910019985534,30.792833054963918,17.347495284687415,42.29308284625494,9.165287978144072,19.845148379527867,29.61775179237916,1
-52.1621228043903,-36.970282716456026,-4.131433807308257,19.89831445657,18.542787556755275,37.96580467901327,20.027216244191134,38.17502969744718,22.901188623411556,32.45963061334154,2.291817845172443,-0.3923740267621097,26.377795441179405,29.65940885143072,16.91942082192206,41.96645733980411,9.570165556207828,20.218807914643065,30.040053525058916,1
-52.32663950990839,-38.464027171968624,-1.5687005663929705,24.38057975491079,20.012394545911448,38.67531175493183,21.32151963061055,39.46549173480743,24.374479259812663,34.00585244320408,4.448964078178005,-2.486927930423287,27.227433860347027,30.585965533359524,17.96211298550976,42.4941304300776,10.701041528314512,21.6441430710543,31.630018099167625,1
-53.27054483352258,-40.67468739242461,0.5682994231376871,30.08633527493394,22.34929988092179,39.652473699409256,23.692387468075047,41.45225698188913,26.409411375625762,36.35899913608968,7.484081605992788,-3.6496923796572194,28.481387941444318,33.307555344334745,20.33176746531136,43.68434046256354,12.152845420020897,23.738455932513915,34.09044899744627,1
-55.313620292961744,-43.51098005306745,1.51490520088745,35.649804896630144,24.796905009855262,40.603440475716624,26.506503590367533,43.62629775905385,28.675924822244852,39.007866042776946,10.304921892308785,-3.8495639627446208,29.553719450321726,37.01719254037813,23.497021712840553,45.12744777454676,13.329580734591806,25.883821131791958,36.831202629175785,1
-58.455289096898106,-46.84452312765643,0.7991517168531753,39.59495904408637,26.590961566060884,41.20036530459673,29.0102870283952,45.40230165512888,30.829150373505172,41.390980024136034,11.90316387546982,-3.259023609454866,29.95010977291669,40.65433781422015,26.73052034222995,46.3687095083124,13.66177079300886,27.441728630913264,39.16885945121133,1
-62.27639315533478,-50.44224914161052,-1.5616187015945862,40.778459262505585,27.238624473925714,41.20763372871074,30.598159360608687,46.334930710380966,32.6085501419436,43.08487164873992,11.72298753372402,-2.1440905685742213,29.487273693022686,43.276015753094846,29.352043071189872,47.092193499394355,12.831174415480449,27.977515962982014,40.56119320180046,1
-65.99071658167908,-53.930511049738804,-5.019391203145975,38.74126382227831,26.690819929141295,40.574198146952774,31.01802182175929,46.281641446229,33.890562093347086,43.93826019481883,9.862484284633853,-0.7550619498135198,28.372541389237018,44.356896600909366,30.935157819567053,47.245740298551546,10.913747454703536,27.41106499732916,40.78972700211886,1
-68.64669532360254,-56.82022670103784,-8.652122767706318,33.857830488446,25.347667873506175,39.46367273959836,30.44657448565685,45.45454404264296,34.69851753929819,44.10421848907386,7.024282938888687,0.7444898912533011,27.1454197198938,43.94107280713299,31.42302362527837,47.05586941582751,8.38253999978368,26.037901669792955,40.028009889089994,1
-69.41571870100718,-58.59411259984506,-11.43766001377313,27.240333214712038,23.903675570318203,38.21504665174091,29.412528215939822,44.3468877783219,35.16196293764847,43.963019641538054,4.260429112193537,2.2950790811502,26.479263265936023,42.584059090970236,31.103183456455245,46.93112059311717,5.973713357481394,24.42329675098273,38.77704598654305,1
-67.90636005014278,-58.85446409884618,-12.58638807590802,20.409695638245434,23.074536214430967,37.22946610003776,28.5830043298426,43.54448744702033,35.4374678696233,43.95353268020258,2.578379490003635,3.889001848753153,26.92027978809512,41.09301195027826,30.449088304513474,47.27442600980321,4.4382425616716885,23.190866566680167,37.67564094285277,1
-64.37425045763628,-57.48443025206966,-11.81939896760791,14.840208003908113,23.31645738815347,36.824269785715046,28.5029992661553,43.50334959570219,35.63319810174722,44.391055429096944,2.560693533230471,5.473350355548701,28.649990977828725,40.227371254673706,29.91077121571018,48.292541111166216,4.270364968165837,22.791638225256772,37.2662766144167,1
-59.72350722930142,-54.73006865593012,-9.475168429638078,11.527566762185675,24.652495769772926,37.1069475976951,29.394541431539444,44.37981502759839,35.77985860673152,45.34681137665265,4.154487438060656,6.920706893704159,31.38780260116408,40.40615187477173,29.744462284278498,49.8857526668762,5.520156440685124,23.344012272391904,37.807138005928905,1
-55.309839858528804,-51.20442277061426,-6.429600739542485,10.75698751594948,26.639961561084725,37.94586411823742,31.059490321134785,45.959779720256314,35.82125919682554,46.602743564580365,6.673099886826092,7.985229095418025,34.441868134877126,41.536592181418754,29.91710420382311,51.63494495047689,7.741652752226656,24.587836540982202,39.17428719193309,1
-52.57114210729038,-47.777313540502426,-3.8300993132209014,12.06767227532,28.517685207252324,39.00322930279394,32.9450641975173,47.727156796466424,35.65495970210852,47.72952479239563,9.03158581697318,8.354735496552056,36.91844905536145,43.08339889394827,30.14307589603745,52.932028549157195,10.110922419784934,25.97716219346639,40.906282826083675,1
-52.579056565507294,-45.349057512665354,-2.7250999601610557,14.448987456555487,29.48247483607737,39.84126587247043,34.34928588928916,49.04856337345448,35.20419107129665,48.2575656895892,10.14251879544638,7.767221456737726,38.02291174397277,44.29872119333907,30.041285842732403,53.20114679282297,11.688742885874673,26.88377146771895,42.376392221463696,1
-55.68598927039827,-44.61176193439896,-3.731209636767227,16.737529054915917,28.971468533671995,40.07495114880449,34.67106973267063,49.39790943352056,34.46653866904057,47.85877138925844,9.300837129799755,6.11261603755625,37.32635471342758,44.534759846194184,29.31605672771246,52.124665173081986,11.729771240632656,26.824902028946735,43.0145471652756,1
-61.37871655503343,-45.83900238777247,-6.832508348846131,17.998871410420115,26.86595958504195,39.50418052160042,33.62513802995494,48.54194128274296,33.52592525764726,46.47810289014144,6.439726602779621,3.532019510885816,34.9203290921015,43.492054250613435,27.90046503646699,49.78408671509361,9.933810493716427,25.63709724004267,42.50325752594801,1
-68.40402136401721,-48.79889715252458,-11.383820539842468,17.800571161065886,23.534936942741847,38.18450192311923,31.34122282678839,46.621404145215834,32.52836739186497,44.36795357034676,2.158303240517588,0.429790378702625,31.385050231124772,41.333888466375505,26.007411365901152,46.66716617751611,6.551975611380873,23.532219792421742,40.8821359714811,1
-75.13699255464202,-52.821997669181115,-16.316396097592026,16.301238919821557,19.71009592217353,36.41115893953881,28.315725293776797,44.09779104967415,31.621215728775272,42.004588060043744,-2.489793477683292,-2.6165334104280253,27.60400830314684,38.61816382295275,24.055690372133963,43.52506795497455,2.315658654988832,21.019717796462565,38.522905488406366,1
-80.08461777470285,-57.01058663633451,-20.48272059478886,14.122938362521134,16.229307882641034,34.61333355442077,25.226730313360328,41.57854158086923,30.87857120474624,39.9112815167933,-6.368058598287044,-5.020600905302489,24.469532884938953,36.076237859414206,22.495481406869715,41.11786244099615,-1.8004171096050574,18.714226075501198,35.98032826704707,1
-82.35523397172776,-60.50712590321796,-23.012148309162946,12.074247137604761,13.757559179659197,33.20469782420104,22.699926185889172,39.60027538349561,30.26354369280324,38.473130663174004,-8.65029960049041,-6.371953000316512,22.60098941542536,34.32811661916155,21.629777959922222,39.9532551649393,-4.889784640356777,17.114994871864848,33.79178914854163,1
-81.93489712436336,-62.75010153988133,-23.56826330194968,10.83290633708089,12.577108716618985,32.441481005326786,21.101601702567955,38.44139338018342,29.63417085081564,37.79669068709496,-9.09598157105266,-6.5747050382567735,22.160507330628356,33.64533400201875,21.48413819686289,40.10307447792561,-6.400437703680819,16.431865920621696,32.2922801955376,1
-79.67947728907362,-63.63503803877601,-22.429267604711136,10.703458422250364,12.52005200800901,32.33311820109013,20.432449754099583,38.029701451169345,28.78888833238533,37.66938530395252,-8.108495223727397,-5.889384597102857,22.823328349397837,33.857190219018435,21.77786041507397,41.165406212351,-6.299923529143166,16.517235578269137,31.508945561156647,1
-77.02951716741622,-63.53021018983968,-20.37211449952942,11.519763664788439,13.058286221841586,32.633840653236625,20.353955793974965,37.97526997189115,27.545045894943456,37.633608786507466,-6.571516772633211,-4.870477367792315,23.913270440340497,34.42620344877114,22.021148381950468,42.38730966426619,-5.071695208267538,16.92447150537174,31.16929513306264,1
-75.51410062893932,-63.12908778649583,-18.391464218418427,12.74042618244926,13.526547226235504,32.93368083031303,20.34606522336132,37.72776099529408,25.821604884461845,37.15825730762833,-5.512453151498705,-4.190441685120474,24.66083594128529,34.671231348671554,21.704206946417138,42.91880807722617,-3.530429553293741,17.08358153723319,30.828013354784844,1
-76.22964053940088,-63.20416783572615,-17.370487569496582,13.671728314712578,13.377824160170965,32.808403597618344,19.9197495766136,36.79164616246932,23.69412521610856,35.838855110183104,-5.7264931745110275,-4.4280687576047555,24.468461289016822,34.04544965273226,20.504305712281514,42.109740607537994,-2.53830073295492,16.516260507630033,30.052067515046108,1
-79.4756072669039,-64.34559458792747,-17.80843195097039,13.731257023845135,12.376170873022842,31.969097532692743,18.802469180194986,34.91337539363689,21.387890002455947,33.55133548176611,-7.50178080936347,-5.889185926337092,23.099597929572525,32.352115571009406,18.426646166331672,39.733250551045934,-2.720541240957237,15.009669494342418,28.589548198921403,1
-84.65788733227217,-66.76354278926274,-19.692358892129977,12.655165122477232,10.665899356010094,30.357806139060706,17.03660813389031,32.17786224286544,19.220403280876834,30.507482559060964,-10.534889340796683,-8.507920674587611,20.73578738718957,29.824552623430122,15.82418002338693,36.065485295779624,-4.269356821627909,12.694434228828772,26.46808495121475,1
-90.48511008475145,-70.21413203730583,-22.53992332661102,10.583317716998701,8.700398102388444,28.173066014550486,14.959012480855915,28.988912453646183,17.510950252059477,27.19893308167841,-14.051384690316826,-11.861710165525169,17.886245952772317,27.02812999360833,13.288070495576036,31.80043533196133,-6.895564063373169,10.004145693435092,23.992624680557935,1
-95.40915433384889,-74.098494260318,-25.60448549948235,7.986093562005052,7.046216759631367,25.812917722578806,13.059325361485008,25.93266661840865,16.477990381390743,24.237163307668432,-17.106559440688635,-15.319402091074684,15.181974768541766,24.63801527475777,11.435837412564032,27.81819840832409,-9.95371861275891,7.520258075876859,21.632908769404832,1
-98.13898108036267,-77.6660009588462,-28.142996110468,5.47689239404705,6.160727777922161,23.735555869452806,11.790016687863329,23.577235018770132,16.166722816109946,22.155516802619506,-18.91912837510595,-18.235990246464986,13.14292783505641,23.16367515155505,10.682370903311465,24.894315403516195,-12.672866789610701,5.774174666457268,19.855845720575275,1
-98.0669409907246,-80.26935314104497,-29.66513483344686,3.591417682857234,6.218740879153297,22.311103150712544,11.398251908525179,22.28611556482844,16.440834947576086,21.24339821593938,-19.147465202192087,-20.15360669545678,12.013129802868272,22.760625279852952,11.08495575804789,23.455817724308925,-14.416742054917435,5.073330729102737,18.96594882693255,1
-95.44616662288699,-81.57664678670889,-30.056211914193632,2.618819187708864,7.062298135863178,21.70694835720544,11.847867428349868,22.110716708462945,17.040685617346174,21.471608699862692,-17.977594585883253,-20.9226989249157,11.715582429600486,23.189514556221315,12.327069826091636,23.4631339035025,-14.876718895337888,5.418165811385926,19.01308643431041,1
-91.28614087872965,-81.66894787249224,-29.564554241114774,2.531336209295288,8.277585158504408,21.836435629380418,12.844299842052163,22.786793181640867,17.672439743965054,22.517754044261007,-16.022550123429482,-20.71917697935326,11.937514082532221,23.92370347770963,13.828106124918168,24.449111337646492,-14.14601836856104,6.5211597714800105,19.786538331504072,1
-86.99685969864188,-80.99661142859574,-28.66108873118552,3.0376086609284276,9.367202227508887,22.400933943239103,13.956984901742516,23.845301550068125,18.10182498759051,23.88943232585179,-14.069248745315287,-19.95480143953974,12.280856588611465,24.382695315934782,14.948677094743118,25.710417716853197,-12.649340766371242,7.925558814928291,20.904010849200805,1
-83.92679186417898,-80.21488173608321,-27.830566075544102,3.726153598627872,9.948852112396933,22.9942404870532,14.787045358300064,24.78034893103528,18.223431785590343,25.08993668384285,-12.78126758993995,-19.114257022225274,12.444142345940778,24.180422525193762,15.21944752304392,26.562246086898284,-10.967630052617281,9.170815137485608,21.951994292534327,1
-82.9241247793056,-79.95012395266772,-27.377877421324126,4.232161275445217,9.90006022909421,23.234680561009586,15.111313377904024,25.21441473698233,18.076592588954092,25.77090230652398,-12.465402571316025,-18.582511055405327,12.348119638099057,23.289269094366396,14.507956250697575,26.570614482438465,-9.626740079610261,9.940122563535002,22.62187048312399,1
-84.08724120393448,-80.58611168138304,-27.327737019150657,4.362004979138514,9.389678885037823,22.885949405337712,14.946261801105246,25.004994978345014,17.80974817434172,25.820003879783744,-12.992321150977007,-18.529465719906,12.14949171532493,22.047880649978133,13.060179645884114,25.681033046040234,-8.928141459985596,10.140255381154823,22.795262399558695,1
-86.78681471244394,-82.13316596821193,-27.448346763712518,4.134141236695748,8.786762561722572,21.925461465233127,14.50963182332034,24.25727454958875,17.601236660772653,25.354621275893187,-13.891949039484423,-18.874236918872015,12.143261249289802,21.011070687816982,11.397190995123008,24.200558013662466,-8.878490077752259,9.889535407718395,22.547851556440072,1
-89.93336639257232,-84.22892529254148,-27.381636650928627,3.721220982428315,8.487932742550385,20.53417409921411,14.10120199824765,23.24404739980289,17.575266695901846,24.636231262047687,-14.577029123102468,-19.368287967187733,12.601693837548272,20.673040216606516,10.108923884912581,22.646137032991838,-9.237523342997287,9.426531768999235,22.078629223998963,1
-92.37832843120954,-86.26366711780466,-26.823919914856287,3.341994565830109,8.735784377980726,19.033353096582246,13.957628075526928,22.28015540390884,17.744489606671646,23.95064108547983,-14.601558386682548,-19.72635649525196,13.616919474086153,21.22505747163029,9.625409322384593,21.530634485230767,-9.648888576479713,8.989532034554397,21.605963477516497,1
-93.30855869060258,-87.58452627102875,-25.676645396019875,3.149654781790467,9.50735421007907,17.785134602024044,14.146088127314812,21.60172252548653,18.0168007917336,23.502954088590187,-13.850109765744858,-19.7617572922654,15.023524683183847,22.42539296277593,10.065564686733913,21.166194317270815,-9.798781524935702,8.71648787465574,21.275467447496897,1
-92.50621394227099,-87.7069845594689,-24.11240102780248,3.1689471923499326,10.517007175777508,17.089496730647266,14.537604560599512,21.296377813848817,18.245866721290806,23.36491757652437,-12.585753168941354,-19.474233024044253,16.432254849174345,23.652737182972153,11.202943508956581,21.56117526222914,-9.53849831240988,8.60582246791273,21.115015411952477,1
-90.38400043851806,-86.46636062088861,-22.522643390622477,3.3077904625429295,11.335886392062436,17.11085668028477,14.872808318006431,21.306006402968357,18.30649935860468,23.48653129109075,-11.323867742621493,-19.045686367017055,17.364779200360374,24.13181744070932,12.557237103682718,22.445128632005602,-8.923659294708587,8.54996532284915,21.054735312972042,1
-87.7930429811437,-84.04910240593122,-21.360662549402747,3.4325177323037512,11.594406160378412,17.855022797074046,14.907592718098165,21.505436744372243,18.181276993959322,23.77401527690632,-10.597086785442892,-18.741257911677494,17.4774252316402,23.268253918217358,13.606478130149348,23.41636357904218,-8.15205079187717,8.431526546960304,21.007533790835733,1
-85.69136382741242,-80.92963154360507,-20.946805103544513,3.4783845102038584,11.170041951164466,19.197830001873783,14.559419663439172,21.80773150104959,18.00454007213496,24.181228041996654,-10.704293945002089,-18.771511267980532,16.720955540889694,20.955192757067763,14.005565561666641,24.14013501535787,-7.442242852611349,8.22804128418491,20.96149688551209,1
-84.7947826526778,-77.72327101111796,-21.313704144778086,3.5034784951576423,10.284974083124421,20.9331759440914,13.991895251383589,22.239940800786158,18.03303105281886,24.765416955957196,-11.548115021442078,-19.156864386151934,15.407874904416357,17.720744237585233,13.72819789563825,24.510949026224214,-6.910039999344461,8.06971153834579,21.034124168951905,1
-85.32980947702228,-74.98938554513744,-22.157626139730926,3.684019744759895,9.465116163556669,22.826667933409688,13.59500594824061,22.954464842739778,18.564727898397855,25.682570726528883,-12.632921996478355,-19.661647325901924,14.147021186489956,14.64394906564334,13.087596325901018,24.713695001367164,-6.493798107535969,8.222056441386517,21.459750589931744,1
-86.9693267608558,-73.09387799370529,-22.91411455871578,4.2849676620444805,9.369989191075007,24.671115997340063,13.85990738137574,24.170151531667393,19.82047628319074,27.117581394935733,-13.227508999760492,-19.861462322302724,13.649414113001553,13.02702340713187,12.611485641373184,25.155217540278766,-5.958757282830143,8.999752328368244,22.510503569945165,1
-88.9720513503753,-72.13935787866183,-22.949341137745627,5.551668322364569,10.539833053850874,26.315024071031747,15.181554127633861,26.05616096554296,21.830211958682032,29.172368033304775,-12.64637836248793,-19.2898920585612,14.463716454070598,13.964424996607521,12.814479918723855,26.2876444079722,-4.99718370548246,10.628806871847704,24.367768618456534,1
-90.4560444203499,-71.97851269299463,-21.785868273381222,7.568374788727091,13.161954637350759,27.650695557438997,17.670520661853374,28.606573472130204,24.377306438355284,31.767265300926603,-10.52998090351579,-17.612843531113455,16.750705251740726,17.91722527575349,13.975377784111947,28.390729818878782,-3.377301615243308,13.116210039475906,27.000735032573434,1
-90.71336155808463,-72.31941686609031,-19.30137618768829,10.17574596119588,16.93629684302102,28.60178411866359,21.041241402542543,31.561753555131926,27.025708124822064,34.59269267187004,-7.034093424332235,-14.81193160473369,20.167881577448767,24.44738006603841,15.997375950121842,31.39445704203503,-1.088998745165772,16.177536565576226,30.099666966653363,1
-89.44781792187743,-72.84221296742328,-15.80969122494098,12.979357496461377,21.108985268170425,29.11088506556031,24.635785920810797,34.424923049795666,29.21947708028355,37.14652182657602,-2.8353789551732436,-11.246447568897583,23.92750818760995,32.26736458417666,18.399154329027876,34.829363612022064,1.5883997658587607,19.268389247851747,33.10696612321344,1
-86.86627877385372,-73.30705192885216,-12.002233265948261,15.447239933539477,24.669923227820973,29.128041816864695,27.586305461631834,36.5704467676767,30.43393970293878,38.85460716477839,1.0515343626739297,-7.594081760955033,27.01411415123457,39.56741545551363,20.456026714702535,37.92378939330568,4.124583818274933,21.71397784160762,35.34490451017228,1
-83.60037028516835,-73.62156157609526,-8.753727624274033,17.058876279228326,26.65414647680213,28.61144681607794,29.06895131055475,37.419171050659514,30.329088961856645,39.239719480156786,3.5902881753886926,-4.675113603900392,28.494036382159095,44.54061497403205,21.447312771407603,39.82794894303721,5.875920818447322,22.899336503283802,36.20494091235843,1
-80.49572002218744,-73.83722809433631,-6.865530548077586,17.456570025570816,26.448062382046363,27.542090665682267,28.567050724125718,36.625352488539264,28.857783661358457,38.08021630114243,4.0580065766942015,-3.2013914989022925,27.82455923939925,45.94083773163617,20.914120708242066,39.89159524687864,6.283584425645213,22.45848643286047,35.3397745204662,1
-78.34243257388415,-74.09383764674149,-6.826006070792583,16.553295882219423,23.99522019839924,25.942840692255857,26.05170656886033,34.2065003278757,26.2865865326103,35.503472933444655,2.2809068523891045,-3.540279565562257,25.036030254092143,43.47010269077798,18.838161460437526,37.89712060814197,5.061932184331572,20.398503613151487,32.790327522191646,1
-77.64723999760162,-74.53766490958812,-8.662496748426776,14.547122599871214,19.829449490043924,23.893776420747557,22.01503122281982,30.56719785454228,23.126032334984483,31.973575650833777,-1.3043974888362655,-5.58220497944933,20.735828306009914,37.87667569970525,15.670650649421091,34.162935226223226,2.3129637165346053,17.11258188509731,28.999617666538946,1
-78.51782897474702,-75.25275733318792,-11.93756566946398,11.854426554861238,14.921684910832292,21.539567118016514,17.340187365394975,26.406020384398524,19.994988774169542,28.17521988473825,-5.790024200699365,-8.757704708261604,15.934632391622094,30.72522821435662,12.207134154475776,29.47847621579281,-1.4768122114874407,13.27726977733901,24.70604016172126,1
-80.67710915739194,-76.22857247539515,-15.89195634654277,8.979459718023703,10.38385487504638,19.08316117678431,13.04032445697496,22.52496360714883,17.449650446815642,24.82022332699347,-10.092382023742868,-12.210323301733796,11.738311125767536,23.915849936499963,9.32949102449281,24.880068828733382,-5.565076745538094,9.658336357761687,20.73805863556079,1
-83.5871468491898,-77.3722133842149,-19.67054077385131,6.384682631155769,7.140876927070131,16.77311228617625,9.964128912725815,19.614176856217615,15.840889884897319,22.45086088672743,-13.288137702573895,-15.06312694689094,9.020754656338118,19.092335600681285,7.72297565196969,21.353107411359254,-9.1559978558975,6.902485751424309,17.788745961049685,1
-86.626292553933,-78.53933503862868,-22.555088811462976,4.398466517517408,5.678035728002093,14.883971844010672,8.563414285405656,18.07886336833666,15.248708629310675,21.301885874172793,-14.86442738452486,-16.691465540918564,8.185148008648921,17.16944678241692,7.666973938764876,19.55545301755641,-11.613696573270117,5.37684941227367,16.238967849906256,1
-89.25734740118251,-79.57438976482987,-24.13501431643185,3.186141568576441,5.943085857371615,13.683766971296915,8.796224088684513,17.95985332319974,15.502806979941335,21.26619665438209,-14.827463881312946,-16.907373780715783,9.096427129578267,18.1149296891563,8.965906616582586,19.649867610059587,-12.618614196159516,5.104705559713431,16.082370864923565,1
-91.1302823497284,-80.34844671311333,-24.362205206916766,2.7824434886887377,7.427295853295738,13.393420038321063,10.192266824517887,18.971043341666014,16.27671060074045,21.972907057200928,-13.61264102222489,-15.98838338913239,11.174980527045594,21.05285701917892,11.041991520888553,21.299046954707794,-12.216336009078868,5.812475851302721,16.975024208636142,1
-92.09566261106582,-80.76489692330233,-23.473587169620938,3.1636060175967278,9.402277367624896,14.148448040212847,12.066844529522967,20.642705278845487,17.230963554580754,22.954261626501683,-11.848083263171201,-14.533091946789241,13.655921006953466,24.653039930637274,13.169918934386077,23.824470113271015,-10.743892420745007,7.074569834155124,18.39722701588406,1
-92.14547301193075,-80.73853186890712,-21.833338070725336,4.3104547105431505,11.215725835321484,15.965274847359925,13.796707415784674,22.513047112329478,18.153157660491434,23.842571859201243,-10.06720804553515,-13.202610183187748,15.891694436088008,27.655603805295883,14.757817549858505,26.470364266389595,-8.669172080575644,8.492709670454774,19.864447497534048,1
-91.3330151386501,-80.17435350804094,-19.767641018592684,6.219306685613778,12.529553913157965,18.712013314378652,15.04825687130644,24.288212870466765,19.03224545203503,24.516125237049646,-8.501555836431525,-12.451210525775252,17.57669111950001,29.32306128925906,15.566610764358959,28.66524346314609,-6.416793543739901,9.837158570065357,21.10227266199368,1
-89.7101721517705,-78.96173947582186,-17.447084562055075,8.866404760014662,13.421893458720202,22.10737233301965,15.883823780191461,25.92119824494721,20.053285261018445,25.145802906293387,-7.0103585611290296,-12.33160975703856,18.831917867025037,29.67460681640536,15.79016177420378,30.196241812310962,-4.2331060274129895,11.107067333553864,22.13054466262903,1
-87.30360852610423,-76.99282106592521,-14.856948651953449,12.143858088078524,14.323927714408331,25.757399287565313,16.714353767361512,27.590349134225075,21.522004463855996,26.13043452866122,-5.17884824582847,-12.457213156705706,20.119416280115143,29.421913636154887,15.980979712160865,31.24429995417751,-2.1378280848201405,12.49603402269291,23.234292783581875,1
-84.15432021892377,-74.21925849746287,-11.87728161831442,15.794998864704404,15.807289518449071,29.221094828823897,18.105849855505088,29.579333539282025,23.736953035653404,27.934892092458274,-2.5502969798327384,-12.156524790717114,22.0146922974336,29.628925841699377,16.83427805721768,32.266207386668285,0.015276936841930915,14.267628110120015,24.821496950982453,1
-80.38584815310655,-70.72069968094144,-8.42696534795351,19.39838791372149,18.310160916299267,32.095797417828976,20.5146804642126,32.10998425875787,26.847844508726862,30.885583598475872,1.1119717480199334,-10.749273989228966,24.926904373618072,31.22400656249062,18.903105720832926,33.76894649960949,2.404692864814642,16.598468248150066,27.223534897770573,1
-76.25654006269042,-66.74155674193416,-4.600217181893266,22.438742442872652,21.909439948362824,34.1159805057201,24.05882962336942,35.20305278472506,30.765854907250297,35.0054403934428,5.642534210654045,-7.845220638518147,28.87256035037435,34.568619589870906,22.365228025766474,36.07439924036076,5.103117802649546,19.458623366112473,30.522377722076886,1
-72.15870097547557,-62.68942849870593,-0.7285302602759032,24.44884414061326,26.234090186353605,35.22786186821793,28.415578378710464,38.62048755854492,35.15302079824741,39.94909743334646,10.456245387939338,-3.567216124971454,33.41124360246423,39.2394624240538,26.9253070371658,39.16097737608179,7.990162011684787,22.577328484850437,34.467739162259036,1
-68.54886305378692,-59.04950021060432,2.6549570026921154,25.184596601464154,30.542043841147578,35.61480609720811,32.87428505649073,41.90868964106248,39.48131290626252,45.05389800486736,14.702432594332022,1.4213044023331507,37.74556038690251,44.118477821792226,31.86577871888661,42.63794012980008,10.754264585450757,25.5035506378486,38.51045011666295,1
-65.82477823174042,-56.262130646570796,4.957592493044396,24.761812575099615,33.94724444657537,35.657895954088865,36.54243573149739,44.5345384382906,43.155226111573754,49.50469680079377,17.548305923378695,6.0696963501684715,40.970332648113576,47.75957669114986,36.248748787767234,45.86748464322684,12.98794802101575,27.74712746029427,41.95110138683299,1
-64.18466511531611,-54.565759862806644,5.732209336277185,23.703803188884287,35.71760717125628,35.83829241414804,38.63513715992283,46.064763446613284,45.664847284854176,52.55887794629668,18.482562315067895,9.271917534829942,42.38389207580425,48.911076402970316,39.19948988666208,48.18354994998989,14.353160882483749,28.954016961856656,44.15647573454865,1
-63.52471607118107,-53.87439270102695,4.857172141353242,22.849814136658377,35.53384775971534,36.599658278312276,38.74440527333095,46.320866973060596,46.71978035903879,53.761095219645874,17.528619659825097,10.239168956470895,41.7474132042643,47.01118179929916,40.18163983382602,49.12689106570113,14.739161083796743,29.043656735695894,44.76592375358371,1
-63.41422756363991,-53.73337276914546,2.6359482599193202,23.13593044904396,33.6205380697712,38.20665123831904,36.99642349920988,45.45442725468311,46.32756332860799,53.07989477719267,15.277011542101507,8.800565526876513,39.401740478274384,42.462004890018584,39.162462176053644,48.61755837984769,14.352864307673146,28.261647825711428,43.8217236355502,1
-63.18600365949256,-53.399197059671565,-0.23680783880494077,25.30293971973465,30.696943784328763,40.647965659271705,34.036059717255235,43.913070671028365,44.7948447055727,50.92121185513859,12.723805129141248,5.514900555380673,36.190017663712325,36.5689923173437,36.623808279909674,46.99471497408503,13.692250594112918,27.120444304997946,41.77255755495661,1
-62.124754630135214,-52.025449947923114,-2.851923967523558,29.606850938585712,27.754630723914765,43.61936497923363,30.83458164680562,42.30204775007461,42.64573229491571,48.009566728223724,10.940202200306121,1.5443370475518106,33.205697944617995,31.163825695523077,33.40817668556862,44.905480170020205,13.397541994881959,26.23831522438789,39.34341515396495,1
-59.67596666434061,-48.896952225256996,-4.326946766878529,35.638500547043655,25.758049064234527,46.5926046140529,28.40241084298737,41.2047448025321,40.49862664819753,45.19554175373404,10.72147570593229,-1.6651134577624758,31.464091537574635,28.05642437186411,30.47342559742171,43.10925346950632,14.041157196502919,26.147238226226627,37.330607801690256,1
-55.611396277155066,-43.64217296644507,-4.04555425432868,42.36046014136604,25.361366090139935,48.96010928687682,27.49403544560767,41.012369330529644,38.92712379369047,43.23485438905584,12.33280487979164,-2.8141287777373623,31.60138168322128,28.460697721332934,28.62261615143115,42.243068165832334,15.930386844658864,27.13004027328863,36.38006891612419,1
-50.11510159255712,-36.37303968728805,-1.83039832802822,48.35535042660804,26.727568165109812,50.21258805154593,28.39614251535257,41.82214374746514,38.33618877584105,42.607052073012056,15.43149219639739,-1.135218425145156,33.69777366554587,32.61764190220158,28.296318561137547,42.637244778341014,18.98300342666045,29.134458611540207,36.81438459105238,1
-43.735503486715174,-27.687756804479797,2.0190083811633635,52.18425204600506,29.511334739696093,50.09539740401326,30.869185297941783,43.43650807081677,38.88776175402469,43.425210549101045,19.202331398948473,3.381396538772538,37.26958326677995,39.72931498685276,29.48822903305774,44.245095750096674,22.727903087448716,31.79559438384343,38.56597230220823,1
-37.209920849432024,-18.514613376686587,6.841297008916378,52.79492933864049,33.01608023810309,48.69308607555193,34.265303935720084,45.4621420118936,40.49195891233767,45.457381648379496,22.672554077083703,10.009419775562467,41.4635330576609,48.22622037037739,31.80739960952829,46.70512727333551,26.449102730573582,34.563573867821404,41.23464505952399,1
-31.22827836280302,-9.853056573982693,11.818923576057585,49.88410571889012,36.44008392437396,46.426725110556006,37.75671915962384,47.46052200121754,42.84778652010772,48.23202143564043,25.06445446782081,17.51587421585036,45.33699389907116,56.254941140269445,34.635408200861235,49.495599757238935,29.417971592914135,36.88518196485256,44.23458659629961,1
-26.21173160514853,-2.4896220443829784,16.213139551858095,44.05166431741672,39.13055008690307,43.94153909412754,40.59930897151351,49.090921014833775,45.52150489263062,51.18701054488771,26.070032323749817,24.52551647396559,48.149656886959804,62.22756806509595,37.330884891325105,52.116268518372415,31.13073947503109,38.37195801216498,46.97441817655479,1
-22.174605502174153,3.2266890347074155,19.55261957091077,36.678842073405285,40.7627881907833,41.92654067861032,42.3451861772974,50.201473855759765,48.04986082046097,53.818228735143585,25.950527141273543,29.91560912660731,49.57326014138172,65.26644449209311,39.41600397221476,54.238932073912395,31.473159499536166,38.90244825995459,49.01676642805242,1
-18.715750559415948,7.492738406805616,21.719063994441697,29.58700076289612,41.3871158420803,40.92504669988042,42.936667676328625,50.84040183722024,50.039856891903014,55.7853576687944,25.426499005080714,33.125199307639065,49.742283980359275,65.39026651932475,40.68546138605542,55.77262721695174,30.759243037668863,38.630746776271145,50.167322127662565,1
-15.158514281781551,10.990733106831085,22.907185215903436,24.554261340815454,41.33836361168159,41.188263820385785,42.66042303702569,51.19113223666806,51.248164491092695,56.9542009302505,25.385429871670556,34.268419194011514,49.14761086937628,63.39637073224627,41.21770221203785,56.83228654879126,29.625540343782752,37.90353132592089,50.476370632006024,1
-10.79546527828272,14.663877662509647,23.49077644128061,22.82190389787516,41.049325286166564,42.60977614585392,41.982699142754086,51.45409346744259,51.607139808872866,57.365323817648964,26.523042548187725,34.02872289770608,48.40872732606625,60.51347467127265,41.28198177747025,57.6195956138052,28.807786114200066,37.11213291229175,50.15441972968043,1
-5.144583993824702,19.41885656026708,23.84604962012855,24.747302992222533,40.8534653638458,44.77096128853063,41.34595367059245,51.742052810454,51.2177891062518,57.16939504200252,29.055685246689883,33.39536427331125,48.01884726862908,57.96022299590396,41.20001839133515,58.293686692938124,28.890585740190208,36.5486893489785,49.458856111495514,1
1.8679287122721089,25.843088157299167,24.210521176756952,29.711379201215188,40.85906537829063,47.07207099452948,41.006521929756985,52.028659232172785,50.31027114106434,56.55858348960423,32.613028507258335,33.33162413283407,48.17005550794036,56.5552273891273,41.2213557681766,58.88486374867684,30.116719128627416,36.31680255943885,48.59516258390819,1
9.85309115119292,34.012577968682166,24.616591667687995,36.30939477915297,40.92748551240797,48.906419438606086,40.959057963608046,52.16112343624858,49.17293385059283,55.70847439167368,36.34194439121405,34.48223612952341,48.69758767116627,56.51801635556303,41.436403017466176,59.272470809608855,32.314547730042165,36.317494582938416,47.660517278056005,1
18.057397164782568,43.46127195253615,24.921059935320063,42.7684671791693,40.75878115543544,49.825971938142885,40.9691526517237,51.935167162921786,48.06841267447679,54.74757355934846,39.19699249193032,37.00101163857309,49.145099727282066,57.4969797243658,41.755275250438224,59.243677966492015,34.97180310305854,36.31462024190223,46.64684134580039,1
25.584419315813314,53.3104911769101,24.900875801782476,47.46470495848458,40.04068908376986,49.64792936666046,40.691693908034786,51.195618855135706,47.159890302365035,53.75214976848362,40.29851199216572,40.53834255004147,48.95227858559359,58.7809140419108,41.94812728038842,58.6041428234796,37.42010286243555,36.043420662020374,45.48965524818017,1
31.672823415043002,62.521762311659174,24.380965008637336,49.38246673078499,38.60124206042559,48.47548932489279,39.82358133770619,49.92070502999924,46.46633773779709,52.75975459984293,39.251204799137604,44.38330192626316,47.669043643624654,59.62307055073571,41.73125434906486,57.287855753086596,39.06681702754685,35.3225118366962,44.135762034605825,1
35.93672460220872,70.2040175563379,23.33509268825395,48.38822718194467,36.49942368374321,46.63268645433959,38.2304731256384,48.25171448037137,45.86253166795661,51.782458556699595,36.29897776432358,47.70290329732018,45.131523759815444,59.511128546515685,40.86554836044765,55.416857693206936,39.5956475931174,34.12649307149323,42.595866674445304,1
38.477172863225874,75.84945810153879,21.914692948413453,45.21479616512414,34.01151061502435,44.548661626318015,35.9925790850308,46.45461375674034,45.122160345688584,50.8095790513726,32.25427452954966,49.774195500683796,41.529572646462455,58.295573694512754,39.23387513251748,53.28055684420858,39.05576190410076,32.584775088099384,40.95379588119608,1
39.83539219688334,79.45904916951949,20.39724889122459,41.18315315535823,31.52432874292613,42.62494828443274,33.360400771966845,44.82664094201155,43.99375124259203,49.802219622524916,28.233098769383098,50.183485964438745,37.35205834662441,56.173875858723285,36.873000502520505,51.24080870844828,37.8186567246747,30.916889805344493,39.33088367177291,1
40.82819883008676,81.53177767598237,19.09185353799791,37.7615285869939,29.393940497624904,41.12948433146054,30.65767411279199,43.59208640395163,42.297348156140885,48.69661187096094,25.306488191257287,48.934934882834504,33.2401272864226,53.55107558233405,33.970565106700505,49.607987173633774,36.43462195899014,29.343843688842046,37.83438758499165,1
42.29536643812718,82.90268773534372,18.23978234330189,36.08932053127761,27.822600703630037,40.153068704212544,28.171966122613398,42.82975468829007,40.0173864461471,47.42443992261186,24.171071885062087,46.45226915592699,29.80777671853147,50.862316985033665,30.835768527989295,48.537795925993166,35.4369971234291,28.00838525201501,36.5135310637852,1
44.853281146260436,84.50545500432558,17.950940721946218,36.61807498340033,26.809713860983685,39.620781881410785,26.079623066680753,42.4586966716506,37.34901874477113,45.947040587501036,24.962305020325733,43.492445905886356,27.48873763808466,48.42647856976174,27.84553745390964,47.989545913593226,35.17065415284212,26.938310438672346,35.34681875615918,1
48.722140844898284,87.11963292428258,18.186633947303484,39.01155476289273,26.18134715609311,39.358787706770606,24.422094460300894,42.28213906128725,34.67367722164215,44.28584924071538,27.250993701276187,40.97738422205773,26.440373505500364,46.39260175611806,25.373155668443815,47.752977468650535,35.700210525427885,26.06149293435806,34.26205936736849,1
53.69890619005361,91.18450421359903,18.806281011653393,42.32316532594608,25.696851182902,39.18650239842541,23.148732146832902,42.08278550850231,32.47086188651506,42.5492745265663,30.23047230047995,39.80014962925185,26.53586519177108,44.78675841923914,23.719634451460976,47.548160364516754,36.83126122679821,25.272904409131677,33.19218619053951,1
59.26644378625272,96.72115148030204,19.65321394161703,45.336956705459905,25.18842281718395,38.986327894028456,22.20321599378861,41.726969895741874,31.196126059394352,40.938466838765706,33.014539221574616,40.62862479529557,27.456140416749676,43.63703964180301,23.064347518531925,47.15811139098151,38.22313238359321,24.516941934721554,32.142434984530794,1
64.78420680030142,103.37081230101778,20.625251803804627,47.04427417160176,24.653900868402143,38.73548342489694,21.58943599553792,41.22412257313965,31.137175543327796,39.7059449798071,34.92342204236162,43.73698588272276,28.805646125787998,43.05308086624283,23.425972186341237,46.520821585063786,39.54349068936007,23.84194271100302,31.22098403541281,1
69.69499607298324,110.52165625562107,21.697882235381293,47.00500715241022,24.257848112852727,38.5039036997569,21.38218714472225,40.71746762885598,32.2941340538512,39.07232330080344,35.66500066294197,48.90414508077125,30.200467168677623,43.22880240245355,24.629224146595632,45.74782126705634,40.59293189472334,23.394442882973202,30.614978458320994,1
73.6768556306319,117.47145980178864,22.89799966513529,45.508165033201664,24.249565313143417,38.41044774408049,21.68433178094873,40.41184968543592,34.34246808143401,39.13420952590762,35.3618623428713,55.396432179144476,31.344398748123393,44.361644037787336,26.3210797950189,45.06521170506478,41.359413530850645,23.36031528687262,30.52043700375393,1
76.70346868865467,123.60210707467687,24.242965657900726,43.48130121753693,24.825617776688212,38.56544679835074,22.5427293945746,40.47015723103156,36.6941866706931,39.799133647323444,34.432451448829624,62.07230601658917,32.05678440213923,46.510505213699496,28.02529248740243,44.702367826755506,41.98663097848421,23.8735027649703,31.04950927475806,1
78.99416716637316,128.5021929442971,25.67574415846687,42.16960845687082,25.992128756814957,39.01912377395156,23.85728434335046,40.91190414054384,38.63674536082449,40.76611787662995,33.38377606419965,67.60469889263923,32.24412365420902,49.4447768014684,29.232736721544754,44.75843589284808,42.67372365400272,24.92693559177034,32.14333583815329,1
80.87508801317666,131.9981283489573,27.02506277796499,42.68166072617353,27.494555085522425,39.740471098694094,25.336132088315814,41.569088541865646,39.521218849255725,41.576676777997044,32.59227670638674,70.75833218578283,31.85959574720437,52.59422623764848,29.509115130688997,45.12600220280448,43.547854550959165,26.32561492950579,33.537493280267796,1
82.62511914275923,134.14550926350344,28.035132719134044,45.58237969623507,28.863207913277684,40.633963779702164,26.54204569676937,42.1281002492327,38.95726319050693,41.74318506791871,32.18032355328526,70.7231268266169,30.900953685938266,55.13880023298195,28.621002785893502,45.506670201771534,44.586234232266136,27.72331545497234,34.813452310759516,1
84.36857568509288,135.17280603741222,28.452199691888538,50.66015052801687,29.56087418893436,41.5817024653438,27.01639152362466,42.24263621119326,36.94333845650653,40.910101813888076,32.020214863044046,67.38378258705289,29.418300109152632,56.23551443335643,26.623467471090436,45.515884204712044,45.61500006495119,28.7291425047927,35.52125157887342,1
86.04981641509954,135.41115446157914,28.13970158780684,56.95006974865595,29.186685833716243,42.49203334229606,26.44743764426708,41.678792305851886,33.88724154009721,38.99634117872111,31.850255432959543,61.43997847540805,27.531015060940828,55.31182320954027,23.8785968016389,44.84511652423572,46.38720440220036,29.049883011661645,35.338000161986734,1
87.49482668334231,135.23167364796274,27.174970914518465,62.99756859302426,27.661500046389218,43.331289116796434,24.820975394371544,40.435498248314126,30.509236928022073,36.263914575264565,31.448175862655635,54.33803248320095,25.458608086610422,52.328320931865704,20.988815741061,43.41544518743157,46.70646334789225,28.613959852344443,34.204222316312595,1
88.53122759989921,134.9988764052629,25.884806213938305,67.28353690388586,25.32076141633904,44.1278312309302,22.49446475045634,38.78950135297744,27.653762096753965,33.28649232653833,30.786800457711614,47.96371038722407,23.536955808432513,47.87257906235164,18.661224686545733,41.46135812073985,46.54805471320917,27.630725901973605,32.389120171301364,1
89.09900683861652,135.03455719052872,24.780672194873965,68.72691173170315,22.85081427343933,44.95536884020064,20.13524579755958,37.233360781703226,26.04844864260123,30.801480729925437,30.080159791127645,44.17151025269071,22.15317537810704,43.05833485757768,17.51087155631632,39.49184502664309,46.11897204895708,26.54965842688408,30.440765559948307,1
89.31576435858368,135.58348110652696,24.42565558814702,66.99432655954065,21.098050321123765,45.87968894270128,18.545489630434083,36.321439916268915,26.09272802962349,29.49263974350758,29.728043354428735,44.286183093343396,21.6643965532665,39.22726020246283,17.872673437651123,38.13862919900467,45.815667401267696,25.922814587562186,29.033013081628564,1
89.47015663087376,136.79517492990232,25.262644073672107,62.59039290374228,20.79974227063154,46.9096299013848,18.41707575731323,36.47573313406003,27.74354448059386,29.770146942703263,30.168987241352227,48.702020185492884,22.298707523826824,37.54806159121349,19.683266291159,37.93866119624012,46.09489735451971,26.21879654767352,28.753873288955717,1
89.95059042355622,138.70752651284067,27.46558689021114,56.70048827038303,22.332386215407748,47.97190635451483,20.09944245900357,37.82518148388334,30.530126600075036,31.62691123706259,31.703146475474725,56.721107731554866,24.071403006575967,38.64268603781052,22.474065288276748,39.13233897481568,47.306253653717874,27.655973448108355,29.90800697374789,1
91.11924817306979,141.2346176132269,30.868978068141725,50.82624461812924,25.571070344594734,48.915343262520096,23.46656278293625,40.13378467932795,33.71086394866893,34.621510261627066,34.35730025120262,66.6920768473511,26.76646838774032,42.36529205065545,25.50599913445557,41.5459799055493,49.540297711213704,30.110985623341847,32.400715595853626,1
93.18848125174513,144.17973124289648,35.002872430575806,46.3446550076992,29.904985232459847,49.55225129621344,27.924747896672706,42.85238651768557,36.49799400323873,37.9941243748708,37.846806774409266,76.4385069658186,29.97170182278593,47.83450276420358,27.980845851586288,44.613193226292736,52.55776350150738,33.13874681007964,35.745950631261366,1
96.14745404747602,147.28139697606377,39.22822613629395,44.13437905322669,34.417432062453365,49.71997942434687,32.574950377586156,45.28386794280615,38.29378970782215,40.89307296509376,41.65105622411279,83.85631915446521,33.17627302508346,53.68550843921628,29.28030545447771,47.535710823405815,55.8370501214741,36.106339083964606,39.20532761540655,1
99.76745992056448,150.26960525541324,42.923237597178584,44.38218440594645,38.167330954446705,49.3544051261966,36.47857446577522,46.81304722571,38.86059928759974,42.636846588922054,45.173838866952124,87.50050563120072,35.89471557225816,58.49332826775814,29.16149559089128,49.53862981025165,58.725535305931466,38.39596786720293,42.01758559620524,1
103.67397959774914,152.93018421998286,45.655690867873446,46.611258299853205,40.47622088470279,48.533895291474806,38.939981749359774,47.11729381092243,38.37487662254873,42.925236300904366,47.92245493267682,86.98594907453406,37.78450965577129,61.216480815552686,27.839098102361017,50.13053230288041,60.64548556583303,39.60456673461037,43.63947246312605,1
107.45850472778054,155.15179639310497,47.27943216052318,49.910548120672104,41.11905833685329,47.47513019437396,39.70300657779254,46.28067024868169,37.33524158693344,41.92598182147523,49.639395410278546,83.07793580514394,38.709707436641715,61.50268172827838,25.911130418631117,49.27470453942291,61.2813396903571,39.66961337901927,43.912894087163096,1
110.78324490760079,156.94429948159677,47.92994078805451,53.261968359011654,40.35408209080916,46.49399494762666,38.99904907189805,44.77075917104501,36.366782654240204,40.204327431990215,50.34165322026956,77.43076872772556,38.733867224187854,59.73267531722007,24.153809052089446,47.40756362387933,60.68210462840646,38.87668255418106,43.10268271276733,1
113.44842440302685,158.41281160763918,47.928104234555356,55.855816070815656,38.792722197169375,45.92691930455104,37.435884317976225,43.286106541620164,35.98869698325134,38.523269979282674,50.265792538800326,72.05538480692016,38.05973983271211,56.85133322345407,23.2526573032768,45.30006195707004,59.24056716799022,37.74833300792209,41.79300109058558,1
115.40735190145341,159.70319844586018,47.631330867031664,57.29982588875537,37.16153703683853,46.03564863798042,35.77049836140796,42.52173042805455,36.430960190904784,37.58380834171601,49.745576779523844,68.70244498075293,36.94660004413589,54.029320226963065,23.561625124659603,43.806909115994515,57.560537415570145,36.857455726780515,40.680710865714396,1
116.72397211697786,160.93448584789317,47.292543749274806,57.65719758107142,36.042736574008345,46.924857419080446,34.6449696725185,42.93151548883682,37.556852442412854,37.792243687864534,49.08077485847227,68.34597439676516,35.62777291722407,52.26043446300136,24.977267849478466,43.58245470399026,56.2553146658742,36.62775709464878,40.33201697273933,1
117.5158898569182,162.14697945017178,46.98572265764182,57.33672858313764,35.693812420810026,48.506088800204076,34.386828638094215,44.57845749305937,38.93214906280813,39.140254824075285,48.453784812215574,70.92759082351488,34.27753577123648,52.05507483599243,26.981193467227104,44.87118149067769,55.756767608131916,37.2014649119647,40.99858045634864,1
117.90346164238505,163.2906396556669,46.630075970301384,56.88609263199452,36.01112241225814,50.52178444061107,34.94529201040748,47.12362132636086,40.0108043570798,41.23941493469793,47.93111194986852,75.46519478742611,33.029334792415895,53.33488498279883,28.841455918523764,47.439834706487474,56.20041808671847,38.419548130668076,42.55399497642911,1
117.99672802618012,164.26320161073596,46.09835233415829,56.767908508293395,36.64339634277552,52.615593255251184,35.97713678756512,49.954796182053194,40.36639914472638,43.492770271899545,47.538634210784075,80.44394416492233,32.02062825807934,55.543471115701635,29.893589820665163,50.67327998854313,57.42299520564307,39.91741163845843,44.57166336585417,1
117.90152909007448,164.97572093350217,45.33807146298507,57.21358839022418,37.192656906390624,54.43111544646896,37.03425212603008,52.400962010618535,39.87872986324859,45.3281973728768,47.34012482269188,84.35770603876287,31.430549752294635,57.88845484275844,29.80631011271548,53.78801684671796,59.058961818170154,41.2872919745488,46.501121576473615,1
117.75278385953293,165.42114815042098,44.46240879979871,58.21341013001818,37.4187851865062,55.72106823519736,37.781858527582926,53.96755247561286,38.81769861790134,46.41992949327913,47.48916672901614,86.2078923232289,31.485240600871197,59.65082052578435,28.738380899318035,56.09666074194509,60.707168575370645,42.25440600367326,47.88955811210471,1
117.74596514783849,165.72928625354007,43.77335219940354,59.572501588745055,37.37611689280571,56.41754767784907,38.16644942555538,54.50816174926443,37.7872582881519,46.81725234739313,48.2341203733416,85.82735666585528,32.42708403523729,60.43603419421856,27.327576608403554,57.23377867141026,62.096899336318614,42.79654579079372,48.56489645943544,1
118.11997032268467,166.16456124762482,43.685983820796245,61.03245072666313,37.408729993025226,56.65024785899082,38.45272908745273,54.26507720977036,37.53517944575792,46.92275664008247,49.82710392437369,83.8876415467071,34.43318440724326,60.27865225581493,26.494909348533202,57.25600313751493,63.17985625751408,43.15285478000816,48.703943460894244,1
119.10155570362467,167.04509138529056,44.58150500881723,62.383100087132135,38.011359834162604,56.69601371353856,39.11847355463012,53.7679652846355,38.698555357493355,47.33188393568804,52.39420596371216,81.60447596188915,37.513232505363575,59.563165969165624,27.137449248221017,56.58884096783354,64.12209253086476,43.72151101430062,48.76310537747757,1
120.81824890344919,168.63303497348494,46.6426019980834,63.533859235074885,39.608210087602686,56.88850669134901,40.64478030894586,53.63279406250568,41.56474205071048,48.59137666662024,55.812082805053656,80.27663504908296,41.43415016252057,58.84371628202239,29.79614570023708,55.852452039477825,65.20229781555963,44.88695824157176,49.297032688726794,1
123.23273735581361,171.03302044405683,49.754261475977586,64.52472266567612,42.35148378830645,57.5081021828459,43.29730651306384,54.337183829349165,45.94685123472834,50.97930593880013,59.67533698864992,80.83664038336063,45.72507971175285,58.61846568250001,34.44511985933856,55.63266024437439,66.67444317618147,46.85495362359431,50.74277928747878,1
126.11475387881742,174.1013472247177,53.5016674191243,65.4707678161874,46.014363739408104,58.6954701513617,46.974636316841895,56.048958702642246,51.207096152023176,54.37394725080566,63.37251146488446,83.52656224737967,49.766154699311286,59.146117760055326,40.45423222947318,56.280854502070305,68.6350186790485,49.54807536046371,53.23942507442447,1
129.07187296662772,177.4397010425449,57.27452208313807,66.4851885577976,50.024165659418564,60.41266901033586,51.1883562538617,58.57035206270605,56.42544312126925,58.26773429729646,66.25620869055827,87.82886422436307,52.941102180521824,60.39333731629208,46.75506733461626,57.8114613131379,70.96002388938864,52.610060448580484,56.55395149031546,1
131.6598717824784,180.48654560124447,60.45711389527252,67.62062666557827,53.639669938596626,62.46079293198455,55.1965051346964,61.418198923608365,60.66967165494563,61.93103357454477,67.87201280354999,92.6838122559312,54.81179133981341,62.10894054879948,52.16093129692191,59.9345285921624,73.34296426607565,55.523792853404785,60.147586654084094,1
133.53256040673563,182.67890032234615,62.63278241885325,68.8592897811374,56.20857432023404,64.55548542870332,58.246647130329464,64.0088425770153,63.26855362755171,64.6591827276343,68.14458036036162,96.88138568072674,55.2689818884977,63.97555086344602,55.729233136019005,62.19917224851483,75.4191815052094,57.801153714856675,63.35845116065919,1
134.57712458605602,183.63644556429287,63.73119360943019,70.19218993968705,57.40535297536554,66.43589055049951,59.83715514235102,65.87537542349968,64.0038093356188,66.01530960188893,67.4462796551209,99.48505965289573,54.57361011741602,65.76205751669076,57.04832248604876,64.1818180184281,76.92940217151593,59.17256934041623,65.63309750499234,1
134.97115845863772,183.30290212976388,64.05121561573132,71.643188247562,57.35286834625239,67.95548776104648,59.89392100104955,66.83338595765548,63.14995882341918,65.97919711866655,66.50556988252198,100.14055918675705,53.27654169487233,67.4256897696135,56.34676010855264,65.64930756528611,77.834365591356,59.690167099651745,66.7151900653008,1
135.1405894765866,181.99454238498245,64.15152012511635,73.28413464931539,56.58810831558745,69.13093412291495,58.80604004593297,67.03857051023628,61.35819782445383,64.94872598376044,66.17787092840642,99.16835819647507,52.056049361847705,69.09654555951433,54.385339023223494,66.63225758217294,78.34845486403982,59.71724899690764,66.73192637628424,1
135.62886908625453,180.3318164487264,64.65556557541308,75.21054427470271,55.88313057555206,70.12819110968056,57.30644386482593,66.91883228951957,59.4390879116008,63.60051064725419,67.15640841619653,97.41788097205907,51.51752363111922,70.97125876129041,52.198524914157474,67.38533220809931,78.87366263944413,59.8036531790902,66.14813757325679,1
136.90716844707387,179.07253025698444,66.03307840948537,77.48071307053586,55.98011567741646,71.19689342627693,56.23550951007071,67.01030273668856,58.117541252171854,62.661780404295186,69.71979978895004,95.95132500836597,52.0176501760679,73.18245952284958,50.76084376579187,68.2591795265733,79.85374368553515,60.49129070908706,65.6058910606621,1
139.19541753487354,178.8755950266473,68.43715830427512,80.03738669129645,57.333580809223776,72.56336174847092,56.26431283839276,67.75013314958593,57.827564454586984,62.66492334346063,73.61646041752152,95.66345159977037,53.57236346501436,75.68826867807476,50.68772654397642,69.53008519775611,81.59665735059536,62.115870044140394,65.69938893585932,1
142.36367698997688,180.09943927723077,71.65756445445604,82.66570602188351,59.95762622613849,74.33165720370425,57.683505152906086,69.3114613483112,58.62853715029402,63.780132232270454,78.13186504820679,96.97925612544189,55.886443914955684,78.24868595007663,52.08064873110712,71.26561594050315,84.14388419801925,64.68373536726443,66.77563121725377,1
145.96239507988486,182.68584248839994,75.21199785248255,85.03070705219787,63.43633689506527,76.43275958095164,60.33230458379185,71.54587626575115,60.26109504162931,65.79045032395945,82.33502876420101,99.73665999997287,58.48932294355856,80.51273686777432,54.570153866186224,73.28750675286702,87.24299718093185,67.87537379329446,68.8324928788441,1
149.3766917171765,186.17662838302223,78.53710650966973,86.78867242847637,67.08493679604845,78.63997083286692,63.682758120424594,74.04484137304766,62.30323324264109,68.20116903847091,85.41488964410576,103.2737792007569,60.91996334157838,82.15751824883252,57.51578725208215,75.23640968162873,90.43300748569307,71.16637651135031,71.5421978260704,1
152.043867753766,189.84849928767915,81.20187749983987,87.72764209639207,70.20042860748462,80.64105420963689,67.04295641224846,76.29662438866698,64.3544599104441,70.4411077130963,86.9782045888818,106.68118676103536,62.893773194324424,83.03446185923407,60.2769239001781,76.71843209107044,93.20971227195692,74.02043998706571,74.38618877360777,1
153.67165651188807,192.94994148697688,83.06806719243242,87.87550938480548,72.31087932131916,82.1465605720151,69.8069865797077,77.88140991922178,66.19100214294961,72.0791329030986,87.20781781065219,109.14222682115495,64.38625253523949,83.26077159600847,62.46246237692799,77.47592042568816,95.2151497494563,76.08408180319074,76.85156780863447,1
154.35513642136195,194.93067116517685,84.32416592933426,87.57561752948448,73.31897303485712,83.0087540526774,71.6464021708192,78.6236933077812,67.81004792753596,72.96395511095886,86.79549498010653,110.17243710103672,65.58691950853198,83.17969321537029,64.04331660166781,77.50281724443546,96.37452811904167,77.3053418532824,78.60589103507083,1
154.56251798155486,195.61763437656984,85.39779663761584,87.39563857236934,73.50839667916739,83.28436185718238,72.59078425047895,78.6509619332984,69.37317468915062,73.24883490131597,86.69471455556493,109.76857191031718,66.78461584650191,83.22602434941263,65.30358506580816,77.06526676426421,96.92217863402941,77.93398037490599,79.59479839816466,1
154.97935113913908,195.25982431854027,86.76523627522482,87.9135878479949,73.40593020361332,83.21666048196724,72.9693836595771,78.33637717461964,71.0750584023428,73.29738456155613,87.76424334784582,108.37225769009683,68.20329034201713,83.77282154218264,66.66085794241128,76.61605462650495,97.30549062390052,78.4038919515034,80.029106182834,1
156.27003483015847,194.4514478601756,88.74838116067716,89.46058295259643,73.56965721098854,83.14124455380828,73.2538782882101,78.15140038237804,73.00674423417534,73.51478023394854,90.4416410137265,106.72515170740827,69.87697917923448,84.95276829184435,68.4381151808763,76.63345219413925,98.0100652060797,79.15069282672424,80.27688481482802,1
158.8115183946816,193.9210461079334,91.35124274328423,91.95710004072488,74.3580173098483,83.37871447046193,73.83721262162177,78.46930190188786,75.03607304411226,74.1437504632112,94.53993642939197,105.58080306202102,71.59791492490639,86.55312240665938,70.64942345951077,77.41284552000289,99.353112081849,80.42030709394903,80.68357737831832,1
162.53534319402166,194.27715730152408,94.23101800109922,94.86229690613719,75.80010843243019,84.11764619366592,74.87443240589123,79.41899084595174,76.81434864253045,75.15012496194811,99.279910475152,105.45382797193695,72.98913355901718,88.08563039201408,72.94204273973457,78.93809856305653,101.34290654939925,82.16297709664347,81.42412382363014,1
166.9277180644514,195.81534231471647,96.8168733544932,97.29840059374025,77.6102655854385,85.33341043188598,76.23636821922304,80.83175660854647,77.89418769725508,76.23216913569846,103.54904601260444,106.4684502213856,73.67179762335444,88.95520675314256,74.71206682841499,80.85956862171685,103.66213915860308,84.0510211158271,82.43530054480694,1
171.18405925761363,198.41942196489296,98.51980496155687,98.39055028609243,79.3218421597198,86.79517124950993,77.57883484252966,82.30352345701318,77.89884902129053,76.93775901194077,106.28100586825768,108.31530136154042,73.45034460465877,88.69836102253817,75.32828150983731,82.5970079796784,105.78358573829193,85.61186615241037,83.44739627377137,1
174.48037518025853,201.61608875018803,98.97074886967401,97.63839430715875,80.49648571809993,88.15121296991843,78.50742380112268,83.35313484090123,76.69225181607854,76.85665264991525,106.83769207578429,110.37547814712103,72.44168994505212,87.1849062055228,74.40186211813328,83.5346593295578,107.17988464500436,86.43138083567202,84.1085908939548,1
176.25983915854155,204.73400921920077,98.19405245619541,95.19999288293688,80.91937187095452,89.0662615899894,78.76725820023806,83.6173245641007,74.4865616469047,75.81333212867571,105.25386026762203,111.92802776712985,71.08326672456461,84.71503629906029,71.9972735979301,83.246321043525,107.54771475418912,86.34652374113341,84.15366637108194,1
176.43532893236525,207.1235123234192,96.6355073549765,91.96757419935759,80.69703266432059,89.35055074478325,78.37108459756752,82.99934858482227,71.81755394900874,73.97251674144475,102.24117981959084,112.37062196065818,70.01011580917613,81.95361283765784,68.67647374900416,81.65600922061799,106.95625393897869,85.5437473254279,83.53699554999803,1
175.42983200107622,208.3594394546683,95.03464526739494,89.36083988710607,80.21812626440037,89.03742542617665,77.61389294008217,81.72087831349577,69.39913588497441,71.81654026363327,98.95178868371147,111.39432202989468,69.83124313134412,79.72728453264273,65.35463872718984,79.08581755903876,105.85553246673861,84.52054095529166,82.48045108470525,1
174.03967482240913,208.36852957766433,94.17713449983194,88.87815525530033,79.99684999663339,88.37938006324299,76.97259125446111,80.25809586410917,67.91149140223695,70.00504715086512,96.58784210564623,109.06856542557476,70.89596233690663,78.7466245702875,63.0278957797811,76.17069370231827,104.9352212172467,83.9214871995524,81.41707540740066,1
173.16887433089752,207.42900744230596,94.61736492545725,91.54676198094553,80.45870555861995,87.75619409675869,76.92120983859382,79.17733449905158,67.78721750163932,69.15845683100072,95.99926134230851,105.82584140081123,73.13087945320618,79.35406031926064,62.44641817300476,73.6609367670422,104.87946156471678,84.30309774305424,80.84352984317897,1
173.51957315515907,206.0477382671557,96.46000531639275,97.45328276167744,81.7505848091074,87.52286618975876,77.73093191285099,78.92714605374547,69.0570145657489,69.63489414721786,97.39962081609042,102.34772873205259,76.01187303444516,81.39219032719059,63.84451289694256,72.17975395800201,106.09517895823633,85.90311330349402,81.12836281030975,1
175.35114539653017,204.76761023059225,99.2859069542663,105.54516619502022,83.65565422949179,87.85644343972412,79.33762756560355,79.66595295081595,71.33111547674031,71.38984520923478,100.30009056042421,99.37951468100738,78.69539400530404,84.23541097687826,66.83786757071165,72.02500877098461,108.52069782369406,88.50919998492266,82.35480084576481,1
178.39606222041397,203.98426173719946,102.26695484826136,113.81376686452494,85.65245825022849,88.66563656575251,81.33824078412661,81.19176887953294,73.92229461194657,73.9723931869124,103.6993675473322,97.55554031229107,80.30221749866139,86.994768891052,70.53851402875924,73.07778390367503,111.59768805153143,91.4854450549253,84.26246166050167,1
181.96512336694673,203.837757146637,104.42802262383118,119.81815232798985,87.09830659862352,89.59046543586722,83.11687614968629,82.99933136656338,76.0647573304302,76.66085724738241,106.45011442421307,97.26617067006764,80.21331518289644,88.80388468255633,73.8335873769411,74.85363597786098,114.42187296212076,93.95320016590027,86.31202581269238,1
185.18166682182093,204.1853121231537,104.9544856124319,121.46599836702926,87.45097180006852,90.11341640362996,84.04182896301252,84.4350346970428,77.1318968713449,78.67076003486316,107.64776580997064,98.55164068617148,78.27578100642282,89.08854591739544,75.71844156019147,76.65612400569282,116.02488498019092,95.06321035692608,87.83939344803815,1
187.27727511156337,204.68148285771736,103.47166482977026,117.70234027997061,86.47069995586469,89.7269632699045,83.68666934784605,84.90893494892308,76.81306965988212,79.38856226751474,106.92764808335517,101.1012225805879,74.87933361202957,87.7492324252649,75.59893437461879,77.80330725239973,115.69911463809787,94.27417479361081,88.26607853207389,1
187.83766144754526,204.92496022355496,100.18009123102054,108.91922520259726,84.31205470115012,88.1138099072238,81.98199626880496,84.08407264731885,75.1777864084848,78.5450249069478,104.55962245037122,104.32409914429226,70.84245429780651,85.16716081828666,73.45739614766292,77.83549694320327,113.25092526306844,91.54077285177179,87.28404218049718,1
186.9159259458567,204.60532870452118,95.80148480550439,96.93349358881147,81.46836004864251,85.27738048284044,79.24139304387857,81.98016499080596,72.61915161682235,76.27176184911139,101.30917358228969,107.4704151273858,67.14596530755347,82.06248547211423,69.82765308761081,76.63756809736456,109.0899320251741,87.34356639710974,84.95252311144621,1
184.9833441302819,203.6130786518093,91.35787616068114,84.49917666694532,78.59176630308504,81.5560752723377,76.05121038509266,78.95059238979975,69.69024065367958,73.02538720787703,98.13182363212005,109.79634698644766,64.60048556906862,79.22371443862308,65.5828620708007,74.4354037591262,104.12187582624034,82.54950887790194,81.67100934392955,1
182.73501619696628,202.0633029794563,87.8481483519097,74.50185162110884,76.25351765819019,77.53562899466124,73.06441654287639,75.55139533262512,66.90951532983222,69.4148393666186,95.80763519079757,110.71874099791422,63.57213001543182,77.21221692410228,61.63189007007844,71.6820548277012,99.4708704200553,78.14653139342488,78.04177693824369,1
180.83393168446452,200.21925059429097,85.9383122066898,69.0886361291152,74.74049170370846,73.87827575676789,70.77796658861986,72.35071027409106,64.60556655949581,66.00209452023843,94.65869925076318,109.9133872286625,63.866405852539934,76.18451455866266,58.63896404118598,68.8786974538631,96.12018844696814,74.942282702274,74.67206747455494,1
179.69895753423862,198.39111345053738,85.77249466407292,69.03728522640195,73.97012257736091,71.1231353069311,69.37951287513893,69.74895842792569,62.85859369587663,63.14718298392044,94.46591249781633,107.38775914412497,64.82223290760938,75.85157725375483,56.85751707711001,66.40340314545983,94.60892096224515,73.33494276614898,71.99179967648386,1
179.3935952262471,196.81822403548833,86.94918236500655,73.56292488101862,73.5407820007037,69.5319622120385,68.70417947807925,67.87217492415543,61.53165320195195,60.939496809563,94.59627148990427,103.46333440260013,65.54016063789325,75.61222250555291,56.11294242692297,64.40625184932817,94.87377637884879,73.22020154927279,70.14004570476783,1
179.64861523445245,195.58620578443634,88.67517732722024,80.61545822372008,72.90816668431043,69.02660094517064,68.32618506291222,66.56993786970715,60.38222584788638,59.23671859437585,94.28478663969626,98.70403486735734,65.21583397720195,74.8016405431418,55.93968884016542,62.801511727959635,96.28959027898676,74.06505997735954,68.96253698915666,1
180.01084686819962,194.630681946888,90.0460665958926,87.56040613338374,71.62096121302139,69.23978930730874,67.7478330166775,65.51932118682878,59.20052175723812,57.787394013251976,92.97003361448334,93.81194014949874,63.43892958760086,72.97225194906272,55.80733125943515,61.3592331997192,97.90045063313873,75.11775354939815,68.11619721715806,1
180.047672489634,193.79031979208398,90.34717784464367,92.05686567069361,69.51560417697652,69.66563203760214,66.60724022462459,64.38611744067984,57.91528330416177,56.37696264495115,90.54457843601479,89.45763128476321,60.34102719677247,70.08413507397441,55.33918757224418,59.84549517910515,98.75731378174788,75.67808569740438,67.23455353613538,1
179.51134669910013,192.8969442609835,89.26885586220207,92.77796437793604,66.79299549639234,69.83721651974909,64.82125907238874,62.973730113582896,56.61440542752427,54.93334792096709,87.41790030456856,86.15804621621716,56.55502112033159,66.56228713485652,54.43628379065055,58.15022890504455,98.23741167486045,75.32196156558602,66.08195129056489,1
178.4187944112278,191.86342912730422,86.97948168434583,89.73678201354987,63.9538692708578,69.47532922310597,62.61954844541859,61.30927897830138,55.487667051505696,53.55870002562496,84.37703161109295,84.1921789121515,52.99752086973989,63.15805374027897,53.268428743018916,56.354912879134424,96.24124812277506,74.01499893575362,64.6475535380167,1
177.01696872735795,190.71969356201433,84.02891075046098,84.1528876890781,61.61059657922587,68.56319960047948,60.45284329040489,59.63501504758583,54.71399366835822,52.47579158406124,82.28566643762522,83.57894847422426,50.54837315891997,60.70613650927897,52.14610736577208,54.712439352009355,93.20163259684169,72.08128069938607,63.14330253663847,1
175.659593751639,189.58216708681653,81.12935111750994,77.91516476929226,60.25015991508509,67.32048412166466,58.814157568946996,58.308981794663815,54.35931251414907,51.91718810525893,81.74342415846185,84.10922665902929,49.74895452186842,59.83845479338027,51.35042708532358,53.545758468572345,89.90715002044894,70.0459677877257,61.90911131996143,1
174.64466877431664,188.5889881828204,78.89066001527223,72.86106674854074,60.03366253955186,66.08900600961577,58.035222057333144,57.64863603453751,54.313158429212805,52.000305063067934,82.82797452315268,85.42764200313682,50.60860745913288,60.744090655996224,50.97698186648904,53.099175580941996,87.20648410771099,68.4148944901671,61.25793070101059,1
174.09746769140975,187.81724465201518,77.61601578176106,70.14161777799048,60.721498158996106,65.18938550619953,58.14846761122252,57.79165600259769,54.31179851054328,52.648532489238804,85.02931682000968,87.13006237123884,52.60694145910704,63.078578184201696,50.87560345046228,53.42016399056306,85.70784552852543,67.4830794163945,61.33591643897871,1
173.94160224262004,187.2347884449232,77.22548348584415,69.89895459427427,61.75754460365637,64.80366087099254,58.87033512360193,58.63156122156785,54.04539197163787,53.59972266840158,87.40229379105763,88.8561397351718,54.885402174108144,66.06344241601188,50.72536565988765,54.32085343500315,85.58149232851925,67.2440251448367,62.05072945577209,1
173.96781968740356,186.69584700075995,77.33136555132717,71.3650263482324,62.481377723312264,64.92870939985934,59.70916660039764,59.85030026855275,53.30118559498602,54.495132618068176,88.89237661547772,90.33931394227977,56.543609175240945,68.72885161138275,50.194516673925335,55.434034198533695,86.53227540519542,67.4273470878612,63.096120124889374,1
173.96358061927896,185.9962412369439,77.4269396727835,73.28289898160227,62.38991882596215,65.40094569168069,60.15869435236744,61.03171765768276,52.08138856467251,55.01290295339674,88.71542055206858,91.43496146915537,56.94708821174978,70.22065775198475,49.12684737526739,56.34318640305064,87.93831106331129,67.63868052312651,64.06136691927317,1
173.84377968495755,184.9940809242616,77.12007407375123,74.49086576658773,61.351772554514575,65.98813666080915,59.90579290136334,61.8211911463001,50.65600934263489,55.00079203105649,86.65738043039936,92.11705821093376,55.93830115420721,70.08901895634422,47.676067554783,56.7471464082791,89.10982528275395,67.54861975876523,64.58903821410694,1
173.71081954102692,183.70028392657218,76.31100492646412,74.45728368409151,59.685315779164384,66.50151910926381,58.965338650082536,62.0589701969037,49.50350288531816,54.545346563158965,83.17863310994458,92.42149103851608,53.87720936376195,68.41663241299841,46.3135679945591,56.58172288861802,89.56164958195914,67.04728759267586,64.51172051402153,1
173.81661068089693,182.31554246749968,75.25062802806809,73.49647796004885,58.06519359027981,66.87822553046068,57.690179714763595,61.83851400431752,49.15747162639633,53.94933857602218,79.28814522216527,92.39699214878253,51.49840950171849,65.7968493390633,45.68719415105637,56.05816760997596,89.1888204439095,66.30149085433203,63.91666361815907,1
174.44285189523993,181.19827586952076,74.45657930118561,72.57313854540045,57.286581070989456,67.1791089163183,56.649042271387266,61.459223903321806,50.01338211770256,53.624232285600144,76.22958743210896,92.10393421156643,49.650635427394164,63.13016388192509,46.391333301803606,55.592560069857505,88.28482578444141,65.68569101920315,63.11011114160892,1
175.74459151248078,180.750067929426,74.50979006015193,72.79195695410206,57.960800821479204,67.52562216054302,56.40751373813667,61.290052986668755,52.165789587555686,53.927116867648316,75.0727441669933,91.61272317539216,48.998842357690414,61.291346669712105,48.72626544327047,55.640959592094774,87.39028550582093,65.61030947190942,62.48737339690759,1
177.60982616752992,181.2735422739512,75.80471838651034,74.83685802889916,60.250100750138714,68.0045739330275,57.28700168911276,61.59636910664053,55.316292854384365,54.998018277719666,76.34889921380712,90.99406892986084,49.797810469905436,60.837926116277934,52.514668394074434,56.50249490893258,87.04401716618594,66.31779173600854,62.355879061647606,1
