Fp1,Fp2,F3,F4,C3,C4,P3,P4,O1,O2,F7,F8,T3,T4,T5,T6,Fz,Cz,Pz,status
1.0164395367051604e-14,1.3552527156068805e-14,6.776263578034403e-15,8.470329472543003e-15,8.470329472543003e-15,-8.470329472543003e-16,-7.623296525288703e-15,-2.371692252312041e-14,1.4399560103323106e-14,6.776263578034403e-15,-6.776263578034403e-15,-2.0328790734103208e-14,1.6940658945086007e-14,5.082197683525802e-15,1.2705494208814505e-14,3.7269449679189215e-14,1.3552527156068805e-14,8.470329472543003e-15,-1.4399560103323106e-14,0
10.020735827917985,10.112045914424028,9.716694040850127,9.67329077765591,9.12538279692766,8.604743240026142,11.606059066718927,8.788748885955775,11.084464641794906,10.901399436118407,9.054088470492347,11.048164785292219,7.502786672552009,10.846191654765416,12.806629554085314,11.319251974669267,9.431445073526247,10.733331796267793,9.710746315401682,0
18.23030998059844,18.227362670512207,17.809802728384103,17.382333903353395,16.439414901992226,15.500443871414543,20.992053984951834,15.932373413538238,20.039837643862118,19.86431464660481,16.536312851198645,19.868245652798773,13.327556184882758,19.50477240174736,23.085707731851556,20.623990339508392,17.092404659439396,19.497453543506754,17.44265760798357,0
23.28921420147919,22.892332916281543,23.077576669947895,21.71011743948965,20.632580946698234,19.475696122064473,26.53728396041446,20.242389624762673,25.30513017936921,25.45357385558917,21.28010703530533,24.847348456394418,16.284009671857767,24.431473482677983,28.986112257410273,26.431726486563356,21.685542889204328,24.858212303226903,21.793471746952747,0
24.68730275353253,23.601440374370142,25.062727912605762,22.18768080173441,21.272586662843995,20.178304058334714,27.667440799794658,21.323659329623403,26.31067765968335,27.116356787607383,22.835109237428387,25.435253723328294,16.03094209957791,25.181989276255443,29.836768271285464,28.187387809102237,22.743901242553232,26.31708101521129,22.35093166154114,0
22.825453557550137,20.87967641282159,24.120793689744012,19.370015635262792,18.879096404736693,18.169436404217393,24.953650142759844,19.630629084066022,23.570838472489402,25.264304042300505,21.533815394442545,22.233617535454897,13.134666817806698,22.482502162685908,26.26533263625372,26.34567963277878,20.7074276563377,24.396766759333524,19.758162405850133,0
18.81219906773072,16.035887524421202,21.22889247373099,14.579013582813088,14.687784371152832,14.666577021188624,19.84827212645502,16.238835606694455,18.433120378611225,21.05016098843101,18.308245331659155,16.71496650110969,8.818698232413004,17.904149076542687,19.910962755404906,22.13196285776321,16.709520365250544,20.399784193937748,15.423930582666562,0
14.078854962316408,10.705481457371963,17.63744246928383,9.433260813667314,10.222908348328737,11.097743256367897,14.188047059441406,12.447874010666824,12.608678489548492,15.955844026541934,14.358928296749626,10.69947569204583,4.530382993909064,13.287594813314765,12.87055501239763,17.100607125049514,12.182699900362381,15.959081233611059,11.011945026769158,0
9.938945096638461,6.336047025542418,14.477006846839947,5.326759093931099,6.81651805123149,8.623229729670753,9.623289816026755,9.354171040433886,7.638830297631234,11.325850655115408,10.780671722433478,5.769468793720748,1.467061354844885,10.118210353972259,7.054074279730672,12.6413459630484,8.411972178656177,12.52544028855548,7.887656753980717,0
7.221406463538389,3.772727485333852,12.438427565553333,3.024581603052445,5.222919306919325,7.782689125274649,7.148153903670044,7.532407886100217,4.465133515598737,7.9951423453278,8.257717408370885,2.81044160371276,0.21543248808220433,9.062401304972706,3.647401393719122,9.589796878824233,6.170498292697279,10.946922830598956,6.706498397605795,0
6.08943005733202,3.073741076809818,11.627416997834237,2.4967410649087713,5.448175499137932,8.377283322381382,6.8765937137544,6.922811741692595,3.2323989569115166,6.122598241429116,6.9223075223876975,1.8192389447535766,0.6203166487044096,9.80977251252576,2.846555839484438,8.058511430605769,5.549762440214222,11.270093541135758,7.271740830648058,0
6.111480265232534,3.6203074869026755,11.64582613874746,3.053077137045765,6.855150324702403,9.63518598203779,8.138883690518322,6.969181225826035,3.389502826638228,5.286576042416974,6.430177736445055,2.045959709823854,1.9319246177002742,11.282975076239898,3.9492893394923887,7.549937864586548,6.045115179538918,12.834918977217388,8.713654109775325,0
6.525202385449677,4.449289581609015,11.840270991203584,3.7039461628081884,8.477111239611586,10.577929584869317,9.829571608841444,6.930484102058873,4.019976238693098,4.776695546349198,6.193851591252427,2.3915858578642233,3.1498656450093003,12.118649293945712,5.734489698734399,7.277384433219802,6.835567723454593,14.598172710625853,9.902678465713773,0
6.578692887986282,4.666821068990683,11.608140830766335,3.5914708645724507,9.40664435740972,10.430732422300814,10.859159758092327,6.22490770890943,4.25410047771399,3.9461217245563436,5.668946046180509,1.891823925819311,3.4215405132463546,11.224687225501599,6.968661195061141,6.548613680531051,7.137115456080597,15.550947710454437,9.918271111372363,0
5.838375863324447,3.8046564240675202,10.661547585448222,2.342527380084653,9.133803470557911,8.93693438012121,10.562000619786632,4.6875616271754925,3.619748287801643,2.5035536769665487,4.601435738500795,0.121179459839673,2.3676592966289762,8.225270162464108,6.871850674615988,5.07919717758208,6.513450975103246,15.094660952755754,8.409816765145806,0
4.337066148668963,1.9749115660202434,9.131577506624028,0.20172408239508668,7.693842005324858,6.4459552543948115,8.897255525725686,2.6294563553156816,2.1907012096064946,0.6201301044262018,3.1233112917181107,-2.6442713358850845,0.19663127970948624,3.6167751689685503,5.359765412863882,3.1025381720823058,5.0153816903416715,13.22516943081008,5.7047093884745665,0
2.523855303274619,-0.215559441172028,7.490295391673692,-2.089993663479157,5.592049986636837,3.7573041592482044,6.393527461435246,0.690353757043048,0.49995418161287664,-1.169097306550234,1.6770741725789278,-5.5496957176383495,-2.417167089862541,-1.4078745282633498,2.9993420272943645,1.2542006508266612,3.1162897545583244,10.479924728130097,2.6420717455258287,0
1.08282670216516,-1.9100131975260124,6.364135737340102,-3.5860847033187717,3.5817432277502586,1.8175845245801037,3.907258874099859,-0.41894161962224374,-0.7092054124701648,-2.193404851490168,0.8419554564158973,-7.487401569282189,-4.599853850914907,-5.364346720384265,0.7430954294476518,0.31041407829195283,1.5151486831727834,7.716104599824518,0.23297467041523498,0
0.6552676963188402,-2.346917416265,6.273507824267286,-3.5165318827028744,2.3474272536910155,1.3537631047605987,2.2582647368840134,-0.2162469000961857,-0.8212225820560929,-1.9441825226606075,1.0909621350115999,-7.532450535244848,-5.619942653524618,-6.99771063365883,-0.4832463488119826,0.8516317753970757,0.8487565937951791,5.771279328221437,-0.7514513541517399,0
1.579161101859466,-1.1679396964166786,7.408391052422663,-1.6074177167141541,2.224466794771361,2.5899658221212696,1.8914828821116372,1.3389260962192662,0.3664882512007964,-0.31369703020238465,2.5843258197712595,-5.318691197890391,-5.167582470408565,-5.721550327703218,-0.17384497604301108,2.997113781478114,1.4322164908896233,5.1437317461231045,-0.09136404367167404,0
3.7823782453532977,1.4678266228981673,9.56423999709431,1.8216734452599865,3.0980461791529526,5.192293799163701,2.730687818986165,3.840246480297993,2.5614835240802565,2.358975650174586,5.113283677685031,-1.1739560548435035,-3.4342873343664944,-1.784085512955019,1.572760262332416,6.349469329521425,3.164556346673238,5.850825502878158,1.8226105389439988,0
6.834699021087226,4.967418578088147,12.233519034397993,5.982389386210273,4.488919694785759,8.425365527962985,4.2485426006655995,6.607787487536814,5.098826379945396,5.421660686176774,8.188154852055977,3.997160723888094,-0.9901652256881158,3.8568267530558473,4.115578844627858,10.143427741217415,5.6010817894991,7.483786200610427,4.174127593852587,0
10.114514400440976,8.531292942286798,14.79281080978882,9.900701126668533,5.761541178525098,11.438693190192089,5.691589450955228,8.95029781626854,7.193815910538153,8.145719081767252,11.211005436784784,9.022845584710378,1.4560760686171097,9.878046031059172,6.5224665532677175,13.519042488636371,8.138206633080962,9.405861498935915,6.055189582517072,0
13.033796378945901,11.442955056183616,16.726047958749646,12.759102008203799,6.385030727732501,13.581985648146997,6.3873685176151085,10.426316846363587,8.242709545654629,9.990066324465396,13.67913985051487,12.860009091825674,3.3305988142423124,15.033081066697735,7.93050131908916,15.829002248337767,10.247022928911338,11.025400835528371,6.831487630817801,0
15.252031492168499,13.32232619072356,17.813671787201365,14.181728208791824,6.159941870269482,14.640922799620851,6.030490331908084,11.014892039352487,8.070144563726915,10.806941806129606,15.358449829307878,14.943082786431182,4.406800122627351,18.544946839920446,7.89637330246748,16.878709068044024,11.67954642358054,12.05107081068722,6.406784411568931,0
16.77467929914272,14.231860081723323,18.196774038002015,14.34475455769395,5.302503168449961,14.889840082946293,4.8151667471090205,11.111531470873393,7.0061479270131155,10.887869144180536,16.340814607653794,15.346656019072956,4.857749997158104,20.29942857898052,6.577897762840902,16.98781992261356,12.547095918583043,12.608583986078129,5.26925028501677,0
17.87847264370522,14.572326214951202,18.26832027153271,13.845590024406825,4.333666670482081,14.920618035809516,3.3440099665162655,11.329483357538443,5.744600456423721,10.81424229019695,16.9422769797997,14.679138165898433,5.114008972240738,20.75655706725958,4.6613314712605876,16.828871112779975,13.218519118149882,13.14886304838751,4.278234174089264,0
18.94429996760602,14.866933733811647,18.48256932303838,13.429220742664521,3.8631701219322903,15.359997225071243,2.391933050700438,12.22294261612026,5.072389139744685,11.20584062450198,17.533020546050302,13.79857752519047,5.635025397332499,20.670394155273968,3.1022141529214924,17.13942447512729,14.12704125872688,14.230259743246108,4.310561082604283,0
20.26822316162774,15.52396819941644,19.160874367673575,13.683398024256933,4.355498933756745,16.595551139575655,2.620284127505766,14.049527979173568,5.581668025846056,12.474139750863632,18.36948078995112,13.467998297073619,6.691741284825431,20.74520361778836,2.782898997838232,18.42817638139389,15.566305963813056,16.264021296511935,5.9107992851213105,0
21.88879254923176,16.63653906900751,20.331312011555337,14.78584660235344,5.929494681048555,18.583939651951166,4.310395476661982,16.631000388292254,7.436028384060682,14.639275740077542,19.457448842109024,14.044547265734943,8.21481712495426,21.329141288510574,4.174288463637152,20.75164437177852,17.520838808730414,19.284714428527025,9.045652933926844,0
23.53338855390623,17.928950398109354,21.697148994250213,16.42589652299303,8.299685531322925,20.8416501929634,7.243711825363208,19.392552953058082,10.29992783702241,17.301690774825197,20.534404585077194,15.344764322502696,9.807870652301812,22.286336685343333,7.15351093740481,23.667752703655204,19.630321311343785,22.86868946711264,13.079892310004878,0
24.706393934037255,18.87403130115638,22.74968122966692,17.933347345998026,10.883588873053172,22.62908899182221,10.778077588466289,21.572705709594462,13.461286096155378,19.787467626304643,21.177168706269253,16.739063314283374,10.92323121579653,23.0951093212371,11.047953395664866,26.39394705886686,21.308652852116385,26.242261476203176,16.990339112809615,0
24.86488232867321,18.910853527071364,22.95785144885419,18.543778601161744,13.006331949560272,23.234975316112937,14.064584396685024,22.504509357900986,16.081525271322363,21.390135096939513,20.968037537292805,17.414531038785405,11.099503875021105,23.103759906200303,14.863517832300548,28.088768791652324,21.94879779287932,28.517924696842236,19.71985653555935,0
23.638992936979136,17.696710539965455,21.984803183564157,17.714652091059826,14.145483081361748,22.26828474245526,16.343644963371055,21.879152715341625,17.49484783274047,21.63633878937975,19.67810160329117,16.716404253370975,10.181658342396547,21.85049546165772,17.631465708337632,28.17201192175441,21.159361925281384,28.99766817837681,20.55635887418571,0
21.0048321287877,15.285805342438977,19.840346234969292,15.362919553084183,14.115454545826955,19.834635860307507,17.20404569819288,19.87964557419324,17.43664206563516,20.466903578986493,17.38870635227501,14.431789529433074,8.422783403785543,19.30870360358731,18.739728786573465,26.554215037200386,18.93534571296169,27.42496109363865,19.385725529043338,0
17.33194066096137,12.148751222284695,16.898940126971883,11.923510453856963,13.112389785968292,16.519133429761226,16.69882526525928,17.12313422903104,16.108678640105598,18.253023237406545,14.48944385421216,10.89688847277622,6.409358839095285,15.947685322297252,18.116470243957448,23.677019441433806,15.683472641191333,24.079876841163436,16.717991136871362,0
13.306609473267336,9.042986124881415,13.795466553880466,8.226686869029216,11.627423833858034,13.199909319886258,15.302563445414258,14.454376670050513,14.087070595370525,15.667236470941472,11.573166524498838,6.9079200174638595,4.853897632731934,12.602545730707673,16.227865312600905,20.372899802140584,12.112746120783008,19.70300915722642,13.502336544270838,0
9.753563050555954,6.780397170800987,11.239495707318945,5.23478362207845,10.267165984275039,10.758577608417992,13.733454104921792,12.663973707912854,12.11250325289156,13.458288027558819,9.267810669040344,3.4657917995902645,4.335683599627095,10.197737775897304,13.901932838305852,17.59171592331484,9.028178191312998,15.276936894413346,10.796432062381175,0
7.408708103426569,5.965445428981369,9.801733205269983,3.7261450598763655,9.538385795454968,9.7824629268053,12.693639721705397,12.221063228340743,10.824251557202226,12.193722600031206,8.054614793252933,1.4408355305518552,5.0779483059410015,9.417869702743259,12.026524952594219,16.07612642586245,7.089750479700881,11.728144057808564,9.402435168239036,0
6.701423511677004,6.782574508158708,9.733583709562021,4.026596483850592,9.664875570507531,10.358421722457372,12.613063057179883,13.109770641576892,10.534658407329319,12.06057531282329,8.119591407393333,1.267204307882029,6.8374918988454505,10.442793799996728,11.22667209099738,16.09762904506444,6.606065589942885,9.640851728600262,9.594968269468641,0
7.6472152128883835,8.941082341265904,10.914229111196798,5.91311247210876,10.533768005317992,12.059040704234157,13.518641632887089,14.852837569680673,11.148755890498308,12.821086265478405,9.320475068254517,2.804093186104858,8.985438231892468,12.873662929217597,11.667963555684594,17.373315020368253,7.465560585655964,9.112260072477591,11.060617060025345,0
9.886295933155738,11.795837897142965,12.939532462306488,8.722145448472801,11.786699828729851,14.124331543136023,15.07212241480083,16.71112573965694,12.253130201160461,13.93523719338126,11.278573126708993,5.4125678794191145,10.755672611399284,15.878713526385525,13.051870111514429,19.189955328007123,9.226223378793271,9.796297926430857,13.06488992562608,0
12.794666444854801,14.55029258470637,15.260474807110057,11.57123752427769,12.960948111464347,15.721824578331026,16.699155892450367,17.93200787026893,13.278920398964262,14.748491971638515,13.501601855763488,8.171918131742016,11.515077912914357,18.460615733941946,14.739744161516912,20.63981445414687,11.271784833206635,11.057467093554461,14.729385419174777,0
15.661288085960354,16.49516604744247,17.351876113951246,13.641726698988814,13.656212864620187,16.221401091582834,17.79365202040153,17.990466988440573,13.710673810947595,14.713343396025962,15.525118377398163,10.181140072143872,10.985692903685496,19.77954966267978,15.991727809671634,20.920044430057654,13.00941891195782,12.209314192041038,15.345322951563102,0
17.89770562765012,17.227177652105286,18.877887154070553,14.448135359703322,13.69153466789174,15.412979140280628,17.948624449483823,16.76405977350231,13.286275533464556,13.589689281838412,17.05035150014724,10.862711546148075,9.363141679063947,19.442282433448156,16.257297906311603,19.616938760664397,14.066462798859213,12.77659202014156,14.631204361638986,0
19.167032940744882,16.731751616610246,19.75160307651359,13.960357731326107,13.146958186255494,13.55012567756062,17.082428772853874,14.541903319986153,12.073004972931905,11.513738599894946,17.986636333354717,10.125775375840496,7.2389376010388045,17.613999729663522,15.362258582012336,16.83573839589108,14.372112790667208,12.639960106567283,12.804492154626,0
19.400699388082113,15.31217220890197,20.076297509192923,12.541915448034409,12.280796455994443,11.210717705734876,15.421474794823775,11.8744728681673,10.399770384034449,8.917090237379004,18.396665004702403,8.327925630408103,5.354777881280125,14.912541104982774,13.530143556903955,13.135510603667122,14.103991992297496,12.015559689139645,10.449403571151745,0
18.738827161122057,13.427666123077957,20.030203470923666,10.76633823387389,11.38797008824473,9.061187339446967,13.38299042716466,9.353453334613615,8.703403309495007,6.3592042654794305,18.400280367318842,6.09593139744938,4.310319953267647,12.156101150314687,11.26559303684323,9.327293950459634,13.559543680079168,11.316016976583962,8.263217668907968,0
17.423317038338396,11.499402116436906,19.741411061497068,9.177375147846544,10.654477466849864,7.605923311348217,11.401342513848936,7.4011048084769255,7.348656956543082,4.331505325338929,18.080602308873985,4.06430899248712,4.330356623043045,10.052146857565324,9.14399975018568,6.2023693625140774,12.999458524884886,10.94338619912457,6.777564732246389,0
15.68098727894829,9.756775313393712,19.195060360954383,8.082294598690305,10.055734804525006,7.00811680464926,9.753612434090057,6.1355005377013425,6.481193654770826,3.0918656400110622,17.41943071016267,2.632825805765419,5.166042446246314,8.934273182552497,7.576794812386323,4.273615725184741,12.518329523104377,11.085401669528895,6.154567565370321,0
13.641070613483214,8.176690233410369,18.21246646170592,7.447114358234174,9.339632572383863,7.040030126761048,8.450955373970507,5.352897959741285,5.965496074182076,2.583395870162516,16.290079265538218,1.8206964498581852,6.163599574823826,8.640943293310082,6.641009417628826,3.615920366107208,11.992221549632832,11.59720982924867,6.125997478543343,0
11.327445870151873,6.549446020242767,16.528951374738604,6.945809066112431,8.122392581852997,7.191366051655807,7.2519665377275855,4.642401309041022,5.44356768047825,2.4776833496117328,14.525487865733364,1.2941596156430937,6.5038479580058635,8.590230846786389,6.056138781848665,3.871908775470421,11.140009015889639,12.032923886542726,6.110814654323524,0
8.71566408126966,4.627949296856863,13.927492709421081,6.13092950835123,6.04937369349099,6.8836274379461,5.778206470617863,3.5749157924488832,4.482698797654669,2.3115867034290667,12.021404723044167,0.5391447920524757,5.51055665311849,8.017238502782673,5.301081303207384,4.4057743428956,9.659675475568166,11.805347355634208,5.4573371356024065,0
5.810108049442752,2.283610952763883,10.363861793361647,4.641110415568716,2.9470237563614723,5.6951350763740685,3.6720421302973634,1.8782972659218302,2.7384081494250543,1.6508175895826338,8.819090859608915,-0.9041146435215963,2.895975143384286,6.27824499261586,3.8137713422216915,4.533587508202409,7.3744668297305225,10.404841994875103,3.7003100285220354,0
2.7261013440889816,-0.3794464281379304,6.053309524554304,2.3803724838427534,-1.0699932891578943,3.529610208924747,0.7620840151688526,-0.448127956133468,0.09262820897550965,0.241032977472461,5.155910493546298,-3.2229150945176217,-1.1173835409437112,3.1243128953875403,1.2239612526101382,3.763628686154552,4.349843508635561,7.617749906189549,0.7533077657371856,0
-0.2942510886047327,-3.026090971643492,1.4512407074626292,-0.42341020996603274,-5.604904848628878,0.6497055869271898,-2.8534058735046064,-3.138577302591178,-3.301815718125433,-1.92248856369872,1.427139662985663,-6.230883629211648,-5.871296461626662,-1.1736092352031293,-2.4928964307704,1.9484774395839777,0.9064108879888768,3.6349899712884164,-3.0519267551501486,0
-2.9335847299869005,-5.2030659347638855,-2.865316933783841,-3.2979670672044947,-10.09431698974301,-2.4296529125983053,-6.83179228389884,-5.774924771408436,-7.081993157937697,-4.624316035416368,-1.9246707414057127,-9.42064476361204,-10.509588971439463,-5.8904640793219665,-6.994221621707715,-0.6970537135779719,-2.47549544425864,-0.9883198703952516,-7.087861672641752,0
-4.8744824485548115,-6.497139178902185,-6.343387114450311,-5.689038752341597,-13.958838324879414,-5.116947174087951,-10.673263865666721,-7.932224237687979,-10.779600995146719,-7.503698892280616,-4.519926840656281,-12.131289835891161,-14.254860649416571,-10.05809518128413,-11.650867370601095,-3.678124201219714,-5.293710898861576,-5.477808803096815,-10.638764482244397,0
-5.916860241219148,-6.714204331274691,-8.620288897462515,-7.179800130941534,-16.778660613412434,-6.960646703705304,-13.880323946413906,-9.33657697756595,-13.968551251242873,-10.182529927090977,-6.158910979184554,-13.802017414693207,-16.666618358287785,-12.786463640498829,-15.743025705168535,-6.406319606064117,-7.198727248187362,-9.083442031569605,-13.151636887286436,0
-6.082640065073169,-6.0026655556991075,-9.647624281660034,-7.673942953634266,-18.42827069116262,-7.8183912858235045,-16.125742847990647,-9.969180848477892,-16.393771335126036,-12.391747259195494,-6.897973086335354,-14.20558807169841,-17.786311609690372,-13.576923473545124,-18.696342218626604,-8.413289614630145,-8.13369969481932,-11.331925060665174,-14.428641722814621,0
-5.627728537590094,-4.830973233599932,-9.687066832299267,-7.437951327031354,-19.08098219739132,-7.883807951395497,-17.327417519502227,-10.043694556068477,-17.996925061872123,-14.011914022818342,-7.01743190308892,-13.543364270995127,-18.072081768046218,-12.485308600501323,-20.231357243037024,-9.477062653993238,-8.348148113840418,-12.15778675028383,-14.657743203494032,0
-4.967969539429673,-3.8394639111399327,-9.199853151923536,-7.004162110700704,-19.108813401057716,-7.589230480483946,-17.631611661593542,-9.896287001898733,-18.868383919487336,-15.051534109131545,-6.908175176439667,-12.382054922377336,-18.181100107466623,-10.10370129955084,-20.40712167450455,-9.652670876713712,-8.29806475854829,-11.891344650685404,-14.301138821099517,0
-4.5720086148632895,-3.6450157139388017,-8.697415998026612,-6.991844851217449,-18.94060148938531,-7.4459489965330565,-17.34016291699797,-9.855691499489179,-19.17120295722624,-15.601623391281292,-6.948685242202599,-11.476488458828909,-18.708147559353552,-7.387960640446083,-19.573760916068412,-9.222732508907125,-8.496073113813974,-11.135527425388833,-13.9069764155874,0
-4.828581900462725,-4.6405261855973485,-8.583073073388881,-7.889971736845879,-18.912977628534513,-7.8637891847583115,-16.79433051911181,-10.128486579577448,-19.05872205565936,-15.776358576333331,-7.39194971091727,-11.517788594127738,-19.964191386765602,-5.368834938147819,-18.238256171955978,-8.580801094181634,-9.33996701711558,-10.554900890730126,-13.903422528835176,0
-5.9131932045403,-6.844933869469549,-9.021378317970237,-9.868224060520078,-19.150022782312774,-9.003107657244025,-16.243017639401018,-10.729449496573881,-18.609605289818198,-15.65533136158068,-8.281118981101132,-12.8837858125252,-21.857542237170584,-4.831762006402613,-16.881301969529645,-8.081858517589053,-10.963859112182332,-10.63550009748359,-14.441483366337701,0
-7.726470362391947,-9.883781656704983,-9.902600892960105,-12.70293933687222,-19.53512198148942,-10.727925490110222,-15.767284414222052,-11.497286141307484,-17.823559828922264,-15.269571699986734,-9.446559218890126,-15.499711382351025,-23.94078493251462,-6.084382398770613,-15.812697802118798,-7.930555876789838,-13.188855034806235,-11.524238331150263,-15.359010094685413,0
-9.953060614334246,-13.135623625995079,-10.938383793329544,-15.873992310751065,-19.81008428809829,-12.700085568315055,-15.314591773378211,-12.213617398248926,-16.7028708889127,-14.661872601714705,-10.609494179620645,-18.886053158471647,-25.625932145857462,-8.911292369756762,-15.142127979144638,-8.173759278119377,-15.61659184901626,-13.029731175064358,-16.301526070371082,0
-12.177204704886456,-15.947779552487122,-11.80511105008515,-18.754999153240764,-19.715074911864644,-14.533517149174365,-14.780808848588654,-12.734882584323538,-15.344441025901062,-13.952859031410357,-11.507157433737792,-22.332989935793464,-26.436246015897922,-12.684058427947175,-14.824920233604029,-8.754667647367869,-17.786004896973555,-14.734217044096516,-16.912267865925394,0
-14.013118372536477,-17.847352385737643,-12.278489245700488,-20.82434880314842,-19.11294859775233,-15.940660784459261,-14.099107225010586,-13.072179823682312,-13.983644280662222,-13.36562639371695,-11.992027652068552,-25.138265496045605,-26.19802097544946,-16.574748561916017,-14.747197223544076,-9.584107950744531,-19.334183232485387,-16.170075801450068,-17.00350870221595,0
-15.247244182732054,-18.711380205412517,-12.348449043606736,-21.85552994150031,-18.087629649658105,-16.851285277778988,-13.335097350564588,-13.422467692368992,-12.998427349018426,-13.225276931201195,-12.110873188390562,-26.85434148921139,-25.135055430315205,-19.83438331919066,-14.84515395570824,-10.632577795509938,-20.142259974801938,-17.030519656931805,-16.673989940970024,0
-15.915466869319102,-18.80829747487235,-12.24164730287861,-21.996021198895082,-16.951959545150675,-17.43547731321094,-12.718324541920609,-14.111638490146229,-12.83400367492049,-13.894086419109016,-12.10392575850331,-27.438160154189177,-23.810333677963232,-22.018570264676352,-15.180119092692445,-11.973012504845183,-20.384458127108726,-17.30540898337634,-16.30247291068636,0
-16.281393978461733,-18.687275835870828,-12.33765406217099,-21.6988267116781,-16.152253700969425,-18.016993872890463,-12.58523679777963,-15.460242354251045,-13.860922951912976,-15.648964484001715,-12.320628597455448,-27.241709072160045,-22.923977662814533,-23.07959402138182,-15.92614018826016,-13.743587381329757,-20.455457667021424,-17.28461412208592,-16.409820065585865,0
-16.74903439628749,-18.979355477192012,-13.034499993966715,-21.554101939439004,-16.127944527685937,-18.93424275418442,-13.274186057215893,-17.64625390198186,-16.23358814901476,-18.56553303235524,-13.106397953062308,-26.873348190290443,-23.06680398590029,-23.32872691724121,-17.295799826807485,-16.06968364600858,-20.82847052671518,-17.45209126005797,-17.460042745006366,0
-17.717039195782878,-20.164945271449607,-14.59218914876842,-22.06637170595341,-17.15726731381915,-20.38644721812291,-14.990910453368496,-20.59968996901188,-19.78705366377562,-22.433798765104317,-14.67836925584618,-26.96469332356441,-24.50698088114631,-23.273272311022065,-19.41686255135617,-18.957131417829725,-21.873954267340032,-18.28934384016052,-19.659979604573987,0
-19.432620392154202,-22.39391005879121,-17.02022527769425,-23.46952763926209,-19.25360550079715,-22.336487020883965,-17.705548049104653,-23.9848303855975,-24.032271162555663,-26.759355236285923,-17.042477871710535,-27.937058289616736,-27.09570934357639,-23.405635415424506,-22.2258073871572,-22.219432996302157,-23.71441387777947,-20.07209763666911,-22.85125113325984,0
-21.906882788470263,-25.43212966199926,-20.06241130364581,-25.653232321891156,-22.160320306917757,-24.516258594884707,-21.13352304620091,-27.29032931681852,-28.268385668941573,-30.870481731448447,-19.99053726770866,-29.86043037554035,-30.33427898919539,-24.03140384557146,-25.435277088261273,-25.4874111319855,-26.179947042303567,-22.74978527202735,-26.54283600787371,0
-24.900782832980543,-28.735193743258215,-23.266274523981284,-28.209812730580808,-25.427343381010807,-26.515032083510775,-24.79318933561288,-29.977931977427748,-31.76468055625946,-34.0860245281651,-23.15749772053618,-32.43830377169606,-33.55466828564253,-25.1752622546368,-28.580042678454255,-28.286779011725947,-28.862185296369933,-25.93636780888502,-30.058419369211695,0
-27.97703765999271,-31.613012896351,-26.104312751213183,-30.57398762736552,-28.53290155325452,-27.912058835000046,-28.116876070237332,-31.633922342356428,-33.95059826812651,-35.88827490742348,-26.108809566485302,-35.110254454637314,-36.13724123310853,-26.58610067678514,-31.124986298611837,-30.158082834560783,-31.23882623415345,-29.011347268948317,-32.742264748407344,0
-30.646418050309624,-33.47289093547982,-28.15137499016689,-32.24785877718232,-31.05446107171365,-28.44976837514509,-30.62847366036327,-32.11686093154651,-34.59983705515856,-36.09540033349887,-28.474507876065807,-37.27505618579336,-37.729474712629816,-27.878046555830593,-32.647969883892586,-30.828550833527647,-32.87068471211393,-31.34446882429882,-34.19578384381819,0
-32.51233031760818,-34.01128233055156,-29.21115943450305,-32.982325190831446,-32.78324905818726,-28.136348783888053,-32.08015707461517,-31.60103024577996,-33.896260638363636,-34.92335137668824,-30.041346683739228,-38.506828110310295,-38.341589880912736,-28.699354382463213,-32.98636382953532,-30.320853177657717,-33.55475473852088,-32.516769343845276,-34.41035273307757,0
-33.392834161410605,-33.31839866667932,-29.374181040411962,-32.87559911070887,-33.77078094074321,-27.265626159093188,-32.52642235853776,-30.527132042784938,-32.38104912563642,-32.937514920939805,-30.7983690507041,-38.71314541541591,-38.31316239872361,-28.891846946928922,-32.313349382783066,-28.981666338132957,-33.40443318393203,-32.48340790791492,-33.773080436768794,0
-33.33806394788304,-31.816608288405785,-28.94944406698836,-32.31301378973494,-34.25641094578964,-26.3081772695448,-32.27264267474034,-29.43934508547768,-30.762244997364608,-30.868877748224705,-30.88768216744252,-38.13755013128649,-38.132143664641276,-28.542062988393717,-31.078290080701162,-27.374364455522294,-32.787679909619385,-31.579312757064987,-32.90631918437371,0
-32.60767477730587,-30.12607845317698,-28.361021057942832,-31.83846583568798,-34.56948314040282,-25.775415783163766,-31.777660414410718,-28.827624200455315,-29.70808133858627,-29.40986053937334,-30.548498022124,-37.27498206629445,-38.2437715410633,-27.968709599604637,-29.8854749583543,-26.1255783430113,-32.209536728230944,-30.42486313474559,-32.4608664158173,0
-31.566113264360744,-28.85384154151653,-27.996516767620857,-31.950871101018652,-34.9946433838735,-26.053020194982405,-31.496297225125222,-28.979338604682916,-29.64372455283185,-29.008797210103562,-30.024177311597235,-36.68174874723436,-38.87513307903631,-27.605455126129968,-29.304887041950845,-25.72794166738594,-32.1287543159671,-29.712933902171343,-32.88623341155741,0
-30.563176843858585,-28.408842509904915,-28.087970625490577,-32.93020362002535,-35.67735598882315,-27.290282040763557,-31.74151333319173,-29.917000219311173,-30.647227249363404,-29.75607546058521,-29.49526762089312,-36.77999265070488,-39.96553064741666,-27.852096690662663,-29.702267262608835,-26.393603105664347,-32.80171970044784,-29.97940366513806,-34.289487581199545,0
-29.810083353077925,-28.87419524127471,-28.636397832488964,-34.72698716975731,-36.57137457172173,-29.352727305084112,-32.5822673630968,-31.40973573875315,-32.443350642195725,-31.367874160050558,-29.02815839952195,-37.7040634906057,-41.198114526760556,-28.921060601759095,-31.11779189824821,-27.97943604000796,-34.178324813866915,-31.40820208864672,-36.40124496562994,0
-29.360918975890183,-30.034687968346805,-29.465891747925518,-37.011014348754756,-37.50738907687417,-31.910541809514406,-33.872946475440266,-33.110848555046886,-34.556955886070014,-33.335126229007045,-28.61852774330953,-39.29467665978184,-42.1816678536354,-30.795301415240566,-33.29688161300395,-30.075719760228573,-35.948432665821194,-33.80001358997175,-38.719525794692316,0
-29.13865564160653,-31.487026408669387,-30.323726870614102,-39.30238088598973,-38.291008341407114,-34.56683931093452,-35.33788925552312,-34.70514662160827,-36.505209178414084,-35.122676316032404,-28.245915570825964,-41.18703345077218,-42.643038614445764,-33.24949432263743,-35.79996109364503,-32.16533710742677,-37.661882014399524,-36.655615301363135,-40.71241441111408,0
-29.01292354826899,-32.810208358314306,-31.007229791735956,-41.15793710403329,-38.81232198824921,-37.00304594791373,-36.70000836287587,-36.03674501443546,-37.98376281452517,-36.37547663026303,-27.935356195964754,-42.97859643775984,-42.57697062921972,-35.94792928690227,-38.17083521763337,-33.82400775076285,-38.901072698910475,-39.36558341471741,-42.03162516438386,0
-28.873489837813658,-33.70445800644817,-31.444067295581046,-42.314926183543626,-39.09465982500316,-39.05664786645928,-37.77637430535135,-37.14160066132925,-38.95143017589982,-37.03047960508413,-27.77355214804767,-44.374896974999054,-42.26460662377514,-38.54888059375364,-40.07525369572305,-34.86278524696573,-39.41788931250953,-41.409590719713414,-42.624051449451564,0
-28.715836772702456,-34.09938537083582,-31.743658187604108,-42.78838513657279,-39.31125612248002,-40.755889900921495,-38.55405814397064,-38.223809788637375,-39.63411663384744,-37.344437400726015,-27.918693984886087,-45.31032111382101,-42.197844448968624,-40.82111669326099,-41.40941489582392,-35.40591654014542,-39.236126593598755,-42.54314361805925,-42.75184485675286,0
-28.649145418257717,-34.145063442787325,-32.14488914491749,-42.83450685841592,-39.703465095473675,-42.248909211301026,-39.16133184654933,-39.53223161295103,-40.39252820742317,-37.771491395861524,-28.541197268360953,-45.94629734282946,-42.87340118642157,-42.681218335350565,-42.28365642825534,-35.81833480375411,-38.62861262014873,-42.84970595975638,-42.85874417355013,0
-28.856381485849596,-34.128731729137954,-32.915539713711816,-42.83314545332296,-40.47075621196333,-43.695969432226725,-39.786435121296805,-41.22562025994533,-41.545667163546355,-38.77314195238452,-29.752709513893652,-46.58177200991396,-44.574409466251716,-44.17543998720847,-42.9288482655948,-36.54947153100511,-38.01240036551752,-42.678620779037594,-43.37373912269585,0
-29.50025827911796,-34.330491379305606,-34.218840853468244,-43.11053056207031,-41.648479780447815,-45.14340936183443,-40.55030467728362,-43.25241846658519,-43.187628499821734,-40.60015946585164,-31.52947716315312,-47.49002555733852,-47.19554933620257,-45.39454115286612,-43.53872962467093,-37.918055150275784,-37.77930811865916,-42.468639383037676,-44.49922540205362,0
-30.660265904661944,-34.92688313048172,-36.0457049646869,-43.822668000989,-43.07600908280802,-46.48630173776203,-41.4383921853194,-45.34802729312394,-45.12659050944832,-43.182304897310445,-33.70551818030927,-48.800991800733414,-50.236258018028,-46.4150895830212,-44.167332253569676,-39.976446629948235,-38.17123851520699,-42.576364447825114,-46.12108341120757,0
-32.2794450480166,-35.931402624482736,-38.191645899747385,-44.895647092683284,-44.42338157442199,-47.48898338626783,-42.275805210761426,-47.10578652071755,-46.92508388528664,-46.1194225518885,-35.99539974452773,-50.431722276742065,-52.92223167033903,-47.248350902938604,-44.679330087858084,-42.458596626895705,-39.19833903983149,-43.129380583953875,-47.83039104960136,0
-34.17982171107587,-37.224375222994766,-40.32648193078089,-46.079335550397964,-45.309201216017506,-47.89106193084152,-42.79613664585278,-48.13360520244589,-48.065767804491216,-48.817892657127906,-38.07998918935887,-52.12737001655773,-54.457046922908795,-47.85235405186964,-44.813410819739865,-44.87083036610832,-40.661187966188336,-43.993262504254254,-49.085797169300804,0
-36.10650281437162,-38.619375491550414,-42.093692805572196,-47.05477691340189,-45.43368297927545,-47.52136628002469,-42.743841744820706,-48.19882186385816,-48.14319138330469,-50.68369558721426,-39.68883369873261,-53.5606808385559,-54.2803546720873,-48.16341394341701,-44.29758728214352,-46.65543899013151,-42.23177722520119,-44.82949181104425,-49.417940351699706,0
-37.83416220896116,-39.97985571405373,-43.249699237539275,-47.60000888151823,-44.72499124366657,-46.421612670698224,-42.01843898151129,-47.35647792074564,-47.059027294684206,-51.3547404524109,-40.69890191171884,-54.49842132554476,-52.294982950437124,-48.18098544262487,-43.01801399069788,-47.421473079455545,-43.60455020260651,-45.266617984482835,-48.64872939798595,0
-39.24538986642621,-41.285594067241576,-43.742862188748,-47.69466375682931,-43.39496702535808,-44.87556827025441,-40.75366570908807,-45.95757806121879,-45.09551418159477,-50.837939343052305,-41.16378335498588,-54.914922289630745,-48.931689442612736,-48.010404025108166,-41.12231331519843,-47.104551400335914,-44.611439647454645,-45.06920264100329,-46.98788644264728,0
-40.37643001239835,-42.64391268485401,-43.73246855029868,-47.54815492145638,-41.906971161679564,-43.35274089953765,-39.324270960872695,-44.55619635195221,-42.8589723986606,-49.5228715291436,-41.294752707818375,-55.02801786144596,-45.05975253513426,-47.86203714919719,-39.03706768607632,-46.01501615239958,-45.28400813640907,-44.26443744696261,-44.994254953853186,0
-41.37353290936306,-44.203090696919304,-43.50226265458707,-47.49981539128797,-40.82301762820261,-42.344349339894684,-38.23005930879238,-43.70639995348588,-41.071824850327474,-48.02780175270975,-41.35975748741987,-55.20058779392615,-41.72825272102827,-47.96359419515963,-37.342206161734545,-44.717722668108415,-45.80226838039715,-43.13736997898951,-43.37262382250017,0
-42.43678030246787,-46.06216147355865,-43.35944863597379,-47.890494974109444,-40.637173795120276,-42.21044038091325,-37.95082621918858,-43.78223058634424,-40.34234141338701,-46.99187078732602,-41.59460311361227,-55.801920919691284,-39.868657773685555,-48.47647016380136,-36.59800457311926,-43.842154160543004,-46.41139878510753,-42.15249856335982,-42.73940253504513,0
-43.71948969697028,-48.1731264290122,-43.509702322822264,-48.90808766843782,-41.604510205792316,-43.044386114037735,-38.77423675092261,-44.83569986460665,-40.94531595030038,-46.83835534682536,-42.111651996660434,-57.041240202377935,-40.019422641935485,-49.40135060521008,-37.13857231281782,-43.84104958187935,-47.29428451640528,-41.78157044463408,-43.39182540216182,0
-45.25081459170719,-50.304335233540456,-43.982369168551394,-50.49230589735747,-43.65250569755483,-44.633036643832014,-40.68396244596884,-46.573248593385514,-42.7199555891718,-47.62093127404955,-42.86760930048047,-58.85420857546775,-42.185654342425174,-50.542420310697786,-38.93258646786567,-44.81343888599091,-48.4761853513145,-42.32704588105245,-45.19576352952065,0
-46.886580501064785,-52.06702047826237,-44.60890682250318,-52.31870111512722,-46.37949264700881,-46.50731483464862,-43.32643877796312,-48.43580229166673,-45.09953697294587,-48.985213395065124,-43.67213670649443,-60.87883549085699,-45.844524495878574,-51.530584394654646,-41.54402495778366,-46.43424808149748,-49.77762865039115,-43.78261008087387,-47.609320605611686,0
-48.371844884474655,-53.06131215340592,-45.12337241704252,-53.92987452968895,-49.20587061190457,-48.12741199211516,-46.136047906710836,-49.81908862760586,-47.33009926036157,-50.32494374400036,-44.296643410011725,-62.592983750969005,-50.15254240208767,-51.96954791309645,-44.279728511646056,-48.083583504031004,-50.896005972155315,-45.84601619811047,-49.89904126167031,0
-49.432412203882976,-53.03173722778306,-45.28526228560498,-54.90815696388916,-51.56402880090162,-49.07757221013899,-48.51749879965679,-50.294978298050545,-48.73952955021778,-51.017629659543594,-44.57698971366949,-63.50879830465623,-54.21669623523516,-51.59700923682818,-46.41730633987155,-49.07609792728468,-51.52615754392918,-48.02157594965156,-51.40871599563581,0
-49.89005585634166,-52.002763370001695,-45.007381802714974,-55.05455656945477,-53.09115744068732,-49.228910088689204,-50.052604296443036,-49.78392473195314,-48.99228765718223,-50.682882867485525,-44.5023699231437,-63.38256821478367,-57.3668618936714,-50.427333774749705,-47.46410533428208,-48.936260179103584,-51.50384875762713,-49.804198500699286,-51.81345463508262,0
-49.73115697287192,-50.30540603199805,-44.40878226969692,-54.47216383440993,-53.731350729403914,-48.77708325196438,-50.631322006007885,-48.58515938457086,-48.20986385094101,-49.341157582085785,-44.225781648770585,-62.3259429275709,-59.31841528822294,-48.78670467540901,-47.33051399579346,-47.590912527886836,-50.88512375136636,-50.84932306794127,-51.23483286013174,0
-49.143047431509906,-48.52046126666058,-43.81555066503436,-53.564988774024116,-53.75925878173714,-48.18662778474877,-50.50714540773523,-47.29921377407105,-46.958971212735015,-47.457751266664104,-44.03606832887354,-60.81743321479171,-60.22328878766187,-47.26198986606079,-46.39831535107727,-45.451752991726764,-49.97235134696118,-51.111331061250006,-50.21883352781256,0
-48.44905747390329,-47.293972754196446,-43.64880702382464,-52.889378328394045,-53.658523161440755,-48.00242841421967,-50.19679059308906,-46.61159872485924,-46.05297373964582,-45.79791110113553,-44.243922905203014,-59.541115567470214,-60.54173654105032,-46.511804291744916,-45.39607587560423,-43.29643050579064,-49.21703861415949,-50.84221690636247,-49.52736257064461,0
-47.99941364566836,-47.12598244157075,-44.277098920792426,-52.9509863338793,-53.938379935466656,-48.637147046861166,-50.293386024591136,-47.05085218952331,-46.2681056743641,-45.173382290891915,-45.06305344646333,-59.15049172369671,-60.83065055965274,-47.04115099652614,-45.153254133709865,-42.020731333522626,-49.0678075513053,-50.48746610184607,-49.85441527361929,0
-48.02389957936804,-48.16747978025993,-45.851819436023845,-53.98438153755691,-54.92154408489941,-50.17650063834296,-51.22685969926609,-48.77259885650081,-48.044293949370484,-46.13817698343257,-46.4979733113342,-60.00309183305193,-61.496246798649736,-48.98103040352127,-46.287347951559894,-42.312308566878464,-49.78463286340625,-50.48526666197301,-51.53568647994266,0
-48.55547867571254,-50.15611366584696,-48.23998387931186,-55.85533839878847,-56.632559381354,-52.33384943063023,-53.10884980752493,-51.503575786041154,-51.32830391423382,-48.79512140419481,-48.33521921302529,-62.019425010908996,-62.650835557616865,-52.01694168362871,-48.98300946807709,-44.41825236929764,-51.34185165755361,-51.097773158579955,-54.415294951838575,0
-49.40855385839397,-52.47290731108626,-51.03462030128813,-58.077552711838784,-58.77674695936643,-54.52480776310651,-55.66955849116105,-54.61596062158289,-55.566717682831005,-52.73372912453239,-50.19546826175392,-64.6760655568765,-64.07524501101263,-55.45155168243898,-52.89527476480806,-48.036801173413664,-53.411429335096315,-52.29048438778545,-57.87031748891513,0
-50.26275322586121,-54.35011701132854,-53.68332847316429,-59.98628800035078,-60.85717160671414,-56.079133881279105,-58.34988534086239,-57.34557243136872,-59.88660978196352,-57.158186560020724,-51.67380509688268,-67.18754006153885,-65.33416054845863,-58.42925283660804,-57.249817384259416,-52.413064866241506,-55.47618165643458,-53.74681883831231,-61.02573290823608,0
-50.782438480447205,-55.12175740479453,-55.65204494337509,-60.967868406841326,-62.34846051509719,-56.476089031040004,-60.48094982138404,-59.03996250326451,-63.3667761998693,-61.12808455572835,-52.47619610423611,-68.77347411781955,-65.95991802826009,-60.213806105175856,-61.076063118175504,-56.5711709374985,-56.99765436290075,-54.97652171278897,-63.04615943825118,0
-50.783177298396836,-54.48286060794154,-56.62165277165434,-60.71924939935173,-62.916770928929495,-55.572787452113296,-61.54192306028133,-59.40425060114771,-65.359172426923,-63.8834311177314,-52.55505400939123,-68.97228349076755,-65.68322595833926,-60.47937532070717,-63.54632661827294,-59.65718898048758,-57.63188942728708,-55.53098046961461,-63.45452039010767,0
-50.32767735719438,-52.615173725365466,-56.594417973575226,-59.384642397135046,-62.553095945362436,-53.68351049463363,-61.349881227799216,-58.60004390420085,-65.69066592416569,-65.08150631980692,-52.141073044037576,-67.83134981779027,-64.5754578046143,-59.44701342551111,-64.24902922290985,-61.21333742717879,-57.362184599213656,-55.19131648139463,-62.306167215224924,0
-49.7377851229555,-50.159104601227355,-55.90048356862073,-57.546684631611676,-61.60059123799707,-51.50998407822651,-60.147790387957265,-57.1986075592141,-64.71333525879113,-64.90183380453227,-51.682906225220535,-65.93219577926727,-63.07839971170619,-57.8478043751727,-63.33743573816458,-61.32681315850725,-56.52722968158963,-54.087254606331065,-60.18950578193728,0
-49.47352047645279,-47.99401332544921,-55.05933163221289,-56.02446149392116,-60.62060413242459,-49.89616848299883,-58.51008640116184,-55.95765733744215,-63.141064941666095,-63.936611286043046,-51.6728685447127,-64.18554572751249,-61.86248297018353,-56.66509718087087,-61.452206487138334,-60.55169696255059,-55.68850796831969,-52.655485416952324,-58.005054882886064,0
-49.97012367617063,-46.95669683326694,-54.59959423589725,-55.60082047597424,-60.20224497399774,-49.55098784245158,-57.15969474478752,-55.56480461112449,-61.7983578865672,-62.972569484863676,-52.47226611253262,-63.524115415997095,-61.62123894843167,-56.801436614695255,-59.50817625226433,-59.69866838112886,-55.43674398366985,-51.50371786132486,-56.66352656670628,0
-51.44387127122596,-47.54251472867489,-54.85029445902282,-56.723462790837694,-60.73349042673399,-50.78612144350012,-56.708565393987335,-56.38534027008775,-61.31992417090644,-62.69276116711563,-54.15033506789544,-64.54854534630006,-62.82133890417649,-58.73185587909064,-58.370722483970745,-59.5197631678621,-56.15582473628231,-51.17986424962859,-56.75765710120304,0
-53.77074113534286,-49.718195924925524,-55.807850516517476,-59.31702879605411,-62.244337420853796,-53.39013111016939,-57.44033429026137,-58.331140135294476,-61.935990542946435,-63.43152728888496,-56.42773023420062,-67.2834685915663,-65.5237113278925,-62.29686304522737,-58.55993857103188,-60.426175789806074,-57.857939134544864,-51.95525582278558,-58.3548547401872,0
-56.4515841149066,-52.88432424686724,-57.09619976259852,-62.7456682565595,-64.34781881941404,-56.654613409544844,-59.18147053348451,-60.866227378464174,-63.386508303884845,-65.03934843552699,-58.715222950796615,-71.10248786094522,-69.30458700318165,-66.68495855159824,-60.055786404422655,-62.31306943463066,-60.12102839230522,-53.67313556692808,-60.95146087156125,0
-58.75483115527774,-56.07192476893741,-58.10299812780363,-66.01026413048534,-66.36775984249475,-59.613519622864196,-61.37191756475146,-63.209595573685164,-65.05571395201909,-66.96773135074665,-60.30594302127064,-74.9244066933071,-73.36815265582216,-70.68434383534256,-62.334536972985546,-64.61828753408878,-62.22150446369478,-55.78814607556018,-63.66929004720346,0
-59.93493390715928,-58.246331477823226,-58.18767388498795,-68.05893621696175,-67.55229484706128,-61.351873117710944,-63.24912000902155,-64.59890220921272,-66.2081619083116,-68.47540640065881,-60.60021525830422,-77.5580591330677,-76.75671305280524,-73.06469876621183,-64.55910821522977,-66.5267022458639,-63.36136076610456,-57.527928759007025,-65.55929416837662,0
-59.48428802619465,-58.64370686676162,-56.91890537630564,-68.1355133636573,-67.32978975468657,-61.30811428194886,-64.11225550128387,-64.55437814248441,-66.2725310249076,-68.91152188551004,-59.31570396858471,-78.10506164109766,-78.6246992888858,-72.99042215456232,-65.88538109737668,-67.27631800700809,-62.942554983409835,-58.15261355314952,-65.93553351691308,0
-57.30158638315701,-57.0031639672744,-54.23289600582251,-66.01849509249301,-65.49186129976364,-59.43734433672051,-63.54548690863857,-63.019481400601514,-65.03509015738841,-67.94003974405918,-56.58208895666658,-76.25363087134964,-78.45873219301515,-70.29416355077802,-65.7430178917322,-66.4246809854769,-60.765595511321656,-57.19613613400965,-64.59024578242452,0
-53.77400280241413,-53.669023582521504,-50.508463264966906,-62.1235874659649,-62.29213884036197,-56.23340922381941,-61.5730956228881,-60.384880406478935,-62.72598232595327,-65.67565720807332,-52.941587823404646,-72.41571770822479,-76.2292434882482,-65.56988172744596,-64.04347279168714,-64.03002464169464,-57.137733530639004,-54.65631730590503,-61.86742368637255,0
-49.670657415747236,-49.463662946762796,-46.466015683459354,-57.36445503064111,-58.36456404215308,-52.54036299719432,-58.632568268627836,-57.32969960878722,-59.909499986665395,-62.62528518308325,-49.18527618157262,-67.58592767150513,-72.36915652739248,-59.9820954856396,-61.1820521409923,-60.622157809239056,-52.784774318258485,-51.00126589965064,-58.5114029026231,0
-45.923922213651934,-45.42491453224324,-42.9653709374213,-52.866957233908195,-54.5316611207218,-49.26450735011725,-55.41779345651218,-54.58101254027168,-57.26522438672649,-59.49922522254205,-46.122175135109586,-63.01933766170189,-67.63434764564776,-54.896492539652854,-57.87850608397757,-57.01559715578524,-48.6377694030436,-47.03002949108791,-55.39275790114276,0
-43.33151358214176,-42.458041608873806,-40.73415387721069,-49.59409376093902,-51.53409426789183,-47.05063254736321,-52.616838626206274,-52.64276011948877,-55.30746130503645,-56.927548422367686,-44.32236399755351,-59.79946212919708,-62.867571224320955,-51.41960567854473,-54.88619311161929,-53.99715632025052,-45.53100643229493,-43.599982517612034,-53.174884006089634,0
-42.323827939300976,-41.07058228483422,-40.16232690634595,-48.061145858438984,-49.8212872108843,-46.090178560327836,-50.68941828735214,-51.645319491842635,-54.20607273341299,-55.245482801748885,-43.964631015342384,-58.49878061544653,-58.78649174233719,-50.06018331159397,-52.7303459678617,-52.06103363350378,-43.96024995241062,-41.364041893009166,-52.0986460945545,0
-42.83334011385441,-41.22928119158441,-41.187163984897325,-48.188150439483955,-49.42812825756847,-46.07737636910683,-49.71723009536777,-51.31820573863525,-53.72726727132161,-54.379198185207926,-44.795624908104735,-58.9996266752705,-55.815846916777964,-50.57813700147315,-51.526765462746596,-51.24078528167869,-43.937351332300295,-40.56324010056319,-51.91416195671098,0
-44.34276482438305,-42.41859877522493,-43.33575939122864,-49.3726566782029,-50.00566234828215,-46.359060125584975,-49.41103514304865,-51.12479858042557,-53.3482650450629,-53.903316598494555,-46.2419041879314,-60.574241665852995,-54.037562647751166,-52.10484636282759,-50.97699611907722,-51.12866080417751,-45.02209159604223,-40.97828132745465,-52.01230967513431,0
-46.05667945409429,-43.83512116749507,-45.873881371587814,-50.71283952735251,-50.95677668570862,-46.18341141789861,-49.23503035577806,-50.46924759416561,-52.46683142440654,-53.21129677444695,-47.59932728674324,-62.14966327854354,-53.22757378333776,-53.453648453285126,-50.50684220773512,-51.03622599681105,-46.48025488705042,-42.01893908462034,-51.66747201267751,0
-47.18882408262436,-44.69403347543586,-48.05802796749872,-51.35321587113865,-51.673893129327325,-45.006979165986785,-48.650417702528266,-48.95016906760057,-50.67831402726123,-51.786844460481575,-48.283875515680734,-62.715094269763895,-53.00475466725345,-53.5616941547854,-49.542251575158986,-50.289539643520634,-47.56145020327562,-42.967402810608974,-50.35114311380563,0
-47.22418508824437,-44.49834996692478,-49.360770710908625,-50.784154588506176,-51.748700266207315,-42.702700223808286,-47.3388832484446,-46.518878547004114,-47.96359050070523,-49.422095719425066,-48.01480223541145,-61.68250571248611,-52.986858407539955,-51.85863523241631,-47.76886128346855,-48.496243449811004,-47.754281449519105,-43.240580216224664,-47.94919806694555,0
-46.092476145197395,-43.20211402847668,-49.623197739609815,-49.019604556846176,-51.10847159058247,-39.623893532458254,-45.35299960515261,-43.516984377002444,-44.746040170720356,-46.33180573524278,-46.896577964081644,-59.09858426291436,-52.925258355519446,-48.46699687945948,-45.30321722142184,-45.716775578391946,-46.9589603503879,-42.60529919135056,-44.83200142163959,0
-44.16276405951481,-41.18568217786993,-49.05279348228491,-46.55978991988521,-49.999707992437024,-36.467310085866,-43.09978222384726,-40.544873162721,-41.75463931877484,-43.08188682724088,-45.34209023913043,-55.60289315514587,-52.74328802358911,-44.13235903102906,-42.6698702307356,-42.438751226770734,-45.485871050206924,-41.23628065988469,-41.715709599252285,0
-42.12321703777049,-39.1198737979119,-48.133833821856605,-44.22010130623137,-48.89210305468364,-34.05226814010642,-41.22427526314023,-38.276129274491595,-39.805545443672294,-40.424633822735075,-43.928525142228665,-52.21452387276631,-52.53298119695514,-39.97606712608289,-40.65282280387481,-39.42984944038933,-43.94565324329077,-39.65913829486809,-39.432207882022205,0
-40.74356616426334,-37.72187368832412,-47.43826134554005,-42.83824941691805,-48.29192765649922,-33.041112926704045,-40.383972712416664,-37.23209205540411,-39.52428943232319,-39.044761330051585,-43.193833568503855,-49.97263199446289,-52.47767793899776,-37.1104886524022,-40.01928518718171,-37.47182318730407,-43.02450138895822,-38.551942696144614,-38.63616972607706,0
-40.62465165438929,-37.5216541454989,-47.42853705332378,-42.99198165262822,-48.56059159114377,-33.73060367757015,-41.02272844829351,-37.626965388698,-41.13866155783917,-39.34013295753016,-43.462091735168705,-49.59312272231115,-52.76628659562494,-36.28288539788445,-41.24584712663615,-37.1029097348703,-43.248487274584726,-38.50431558219165,-39.58865649968683,0
-41.990081999867385,-38.685640714030576,-48.288923982680316,-44.79313306547951,-49.7701053629728,-35.95203237706898,-43.19168110697907,-39.30166852233704,-44.38254638812407,-41.28277310818942,-44.73081753441889,-51.226565596087994,-53.49511660899477,-37.64171589442651,-44.31327948611542,-38.42896376677935,-44.78882697295068,-39.78911004718438,-42.059650524628374,0
-44.64992031006651,-41.016500036528086,-49.902200274750086,-47.888463493721574,-51.708419638327065,-39.17263506918998,-46.54391644914903,-41.828339644364206,-48.607011986737085,-44.468161357275335,-46.71525278972097,-54.45992912636322,-54.6625109645499,-40.757750193097245,-48.70917588150468,-41.13147512910648,-47.43445458958964,-42.28958563912946,-45.44377123012975,0
-48.0806911845574,-44.05575836581872,-51.912479819816454,-51.595208733000675,-53.96745944716777,-42.693676865547346,-50.44568157536166,-44.67875890177491,-52.9985149168422,-48.273984790893095,-48.96605688122233,-58.490130420094026,-56.18937195296724,-44.8196942003751,-53.58300286252548,-44.605271068633506,-50.67466395164489,-45.54555376651048,-48.9820562511736,0
-51.612573252455995,-47.270318375141,-53.871260783755616,-55.14602900764993,-56.10305257762947,-45.89536000545318,-54.18730052776908,-47.417608202845315,-56.84891320233939,-52.08889581790016,-51.03775945975081,-62.42845117749997,-57.977965177263314,-48.94867479025574,-58.02119830886076,-48.19463796000077,-53.88252829317113,-48.921593310355114,-52.0323573914731,0
-54.63141000212651,-50.21792647292409,-55.384892685002285,-57.92103941820395,-57.778826416415676,-48.40913572283914,-57.192498500142264,-49.818998221236164,-59.754907741439524,-55.4982234829959,-52.622409162186905,-65.58414490008376,-59.95084539640208,-52.47966062289409,-61.32232400198787,-51.40781257962493,-56.50458732099832,-51.807740701386756,-54.259630645436374,0
-56.77234117278434,-52.684503400896,-56.26127384677768,-59.64039398047223,-58.89135407963369,-50.21260047913335,-59.20316480875653,-51.919692343442286,-61.72833414658371,-58.40980963859691,-53.65050358576078,-67.6842661305844,-62.09677939489027,-55.16311210076228,-63.221657070580804,-54.08153868728688,-58.24116285826469,-53.830152366185686,-55.730425842858935,0
-57.9873587253339,-54.68883015946102,-56.55013719455125,-60.39665175078547,-59.57674255637173,-51.559998018782224,-60.31935841858202,-53.93534171948382,-63.1244130446284,-61.01859354213235,-54.271738853542345,-68.89588653325961,-64.44715876501542,-57.15888479954758,-63.93233194544514,-56.378643957354505,-59.1007752176444,-54.93953830635835,-56.82438377228172,0
-58.51250113006434,-56.40171686357634,-56.50725321619194,-60.56383474693999,-60.136503829816,-52.82130124099787,-60.91843083796149,-56.11543511170835,-64.45127074199489,-63.65950148214857,-54.76944836604444,-69.69076720591141,-67.02863159530806,-58.87621832207313,-64.02020766876609,-58.65656141287804,-59.35506977610136,-55.38661831886031,-58.03843549853542,0
-58.72636718830287,-57.99486676607029,-56.472887773635115,-60.59784638028748,-60.88719224784555,-54.26894970459074,-61.46208229689665,-58.56777187006829,-66.11129493342993,-66.58498096198306,-55.41742886606504,-70.58527591368392,-69.78748694786472,-60.70591082701136,-64.13983974651414,-61.23565679713593,-59.39077395117569,-55.57354351219941,-59.73229259988887,0
-59.00602650831217,-59.53429553485454,-56.760616988554176,-60.859749957030814,-62.040384960536464,-55.94980158094169,-62.31329207544221,-61.17803414097076,-68.22202991329354,-69.8070507806455,-56.38109140428341,-71.9155874476401,-72.56389729679071,-62.81108812667853,-64.77716951464198,-64.21377774453126,-59.567654899857985,-55.88992312681757,-61.96838194388614,0
-59.58811942172885,-60.918830845377116,-57.5487997404916,-61.479901013817226,-63.609939092289224,-57.64184072068757,-63.581726857101025,-63.60519244963702,-70.53286366632207,-73.01602963123509,-57.653588442424116,-73.68396317106752,-75.08954207288923,-65.01254367038425,-66.04516021180868,-67.35183788218387,-60.08660131185427,-56.54928758331613,-64.45530165807129,0
-60.52469410003215,-61.92753319270434,-58.851818816413584,-62.34962514497816,-65.4216100460399,-58.951735351484174,-65.09769974269686,-65.39895944188656,-72.515912953057,-75.658746384365,-59.088939425099156,-75.57553057769276,-77.05898781879334,-66.85571500651257,-67.65385444640692,-70.12191048675814,-60.95439651044253,-57.52683821592146,-66.65849143140782,0
-61.695257726282385,-62.3176154277074,-60.53043871630835,-63.192836367236254,-67.17359511481457,-59.47015262392466,-66.47576909061998,-66.15064889880321,-73.54872061350285,-77.10407660623619,-60.46761999746755,-77.09280626267379,-78.20465473441216,-67.78829748911276,-69.01706465296708,-71.86144762344696,-62.007884176438246,-58.57636962753844,-67.99027372598118,0
-62.916542071792044,-61.98090668371983,-62.382498683664814,-63.7366077407683,-68.57703650929271,-58.97811772235516,-67.29878446242547,-65.67868743093123,-73.18121105774092,-76.89707385708545,-61.618409818416296,-77.80151670416812,-78.40753143791179,-67.43021616460057,-69.51443894017041,-72.03839397489443,-63.03265329885139,-59.3711039181167,-68.0638440531231,0
-64.05051755071247,-61.039941505270605,-64.22500163670867,-63.854303402136615,-69.47154344984186,-57.568214095529136,-67.30042630797027,-64.12324822701402,-71.33541902706422,-74.95425756516244,-62.49802762074123,-77.53672813637193,-77.75321176165104,-65.77196765733247,-68.75960794884163,-70.47341866969697,-63.87491762395755,-59.65798922745327,-66.86223614566211,0
-65.08267814938411,-59.86369465905572,-65.95927892389606,-63.64822058231153,-69.89663532580893,-55.65885687044236,-66.5036806615879,-61.941964426908584,-68.39125733810832,-71.65638307638363,-63.218487620400616,-76.5127483412215,-76.5371133138246,-63.24453226633102,-66.80044882384078,-67.46520418308062,-64.5235242988677,-59.3913218744818,-64.78433871722874,0
-66.09991218124881,-58.949098260232546,-67.55439120582972,-63.39630169437024,-70.04965734336332,-53.85167351935771,-65.2189267421529,-59.7634276458587,-65.08165154120759,-67.75723515098262,-63.96911337045187,-75.24673676110814,-75.16619693218205,-60.58398783825755,-64.13053990592886,-63.725148533173005,-65.08795755257336,-58.749820833556846,-62.50899282990318,0
-67.2407117728388,-58.765575089794986,-69.0214625011863,-63.44705920684229,-70.20916465301242,-52.74445302593309,-63.96177644811014,-58.211052135829526,-62.293636258939465,-64.19582862055694,-64.92786544415974,-74.3853131128729,-74.04972358045494,-58.599433852273634,-61.56403835022231,-60.19922648430681,-65.74468234027376,-58.09118621332445,-60.787534836734935,0
-68.58829922683148,-59.56899787692162,-70.34766390313644,-64.05374616507459,-70.6048835164076,-52.717802790963376,-63.269577318830876,-57.707629282206526,-60.78968926004392,-61.821818154403374,-66.14953880684156,-74.45130004078142,-73.46409422643185,-57.877653520935716,-59.9649917476323,-57.78401994970122,-66.62713845139959,-57.811704928886066,-60.18809623790031,0
-70.0831225125252,-61.28482022552946,-71.4476099416035,-65.24536420617021,-71.31000903569395,-53.80245665073191,-63.50766196395327,-58.35539818913533,-60.97089366646994,-61.15115736021883,-67.50241421287555,-75.63479352805976,-73.46327684848059,-58.56809124287922,-59.94896285451763,-57.059988212077926,-67.73166258073002,-58.18942063252129,-60.91159822353846,0
-71.47001630780514,-63.4811385738338,-72.13231937720894,-66.75975443458071,-72.17224620142918,-55.6472494126216,-64.70864799748966,-59.901364168623545,-62.73447538359467,-62.204299730085076,-68.65893700592534,-77.68242189259891,-73.84126382267695,-60.30157107183198,-61.63709110149028,-58.102895199807165,-68.8555027936933,-59.24507629536885,-62.71519533343389,0
-72.3673085699018,-65.50677518772255,-72.17469632497011,-68.132135993262,-72.8728873081316,-57.66114798605071,-66.56578937945531,-61.859308808701925,-65.53305649514805,-64.54012614483442,-69.20835031017897,-79.99183966414371,-74.22003635024677,-62.33923215229737,-64.6124444103285,-60.497415939265665,-69.65716720240894,-60.73561101853646,-65.02994580600661,0
-72.38521045756615,-66.6984155803254,-71.3910953841411,-68.85282831763827,-73.03531385336349,-59.218943046337685,-68.52386594699858,-63.67979205625309,-68.55144535316683,-67.40855177053758,-68.7961071416106,-81.82409312780045,-74.17501299496746,-63.84089077781875,-68.03613603913844,-63.48369553954194,-69.76474737783134,-62.22661245512501,-67.16422883609384,0
-71.27811474837276,-66.60990552652707,-69.73699387240141,-68.56111370102643,-72.37338556523616,-59.88270748670202,-69.96680414831015,-64.93627218044003,-70.97006872454091,-69.99851526771907,-67.27018785894415,-82.57652313894793,-73.38934759401738,-64.18341518625937,-70.91510764154947,-66.21550129985715,-68.92061577628759,-63.24598223310531,-68.55008264897994,0
-69.0495098321909,-65.15812621469338,-67.34994129173354,-67.17773748499813,-70.79576224545883,-59.53069047084845,-70.40751734179331,-65.43260651814813,-72.19413871220125,-71.66577220992507,-64.75205623372304,-81.99445315850754,-71.75471686978042,-63.18151070454884,-72.40243559867453,-68.00745314659517,-67.08245917118715,-63.43523528330067,-68.91066819482629,0
-66.0153473249475,-62.681534383360265,-64.56663365674879,-64.97332754301267,-68.47976016049068,-58.39967598066145,-69.66897796145022,-65.2519228798168,-72.03398557258775,-72.12477514394766,-61.65223674584382,-80.29094880990152,-69.438462617253,-61.178814462627365,-72.08414227038422,-68.54577037143613,-64.4895252612397,-62.69280973727166,-68.34655265838514,0
-62.736147525526036,-59.82727886230325,-61.84127102144783,-62.482496835656875,-65.82357663662091,-56.966994240415254,-67.92852250423208,-64.67273716762305,-70.713991095188,-71.48070003764406,-58.5587937084337,-78.06674442778886,-66.83288224642493,-58.912418186953005,-70.08967484767656,-67.93175156255002,-61.60538805294522,-61.19608777917185,-67.25046939616318,0
-59.87592102874051,-57.34579107287806,-59.63014444161959,-60.33538846422546,-63.33416053277257,-55.76140958781226,-65.65472464027029,-64.03597901566847,-68.76204883899312,-70.14555340921709,-56.076186231162524,-76.10142312218267,-64.44649478346548,-57.2440802973927,-67.03331863960905,-66.59675790304621,-58.99354336116434,-59.3353567280309,-66.1337530972741,0
-57.997648011695595,-55.833376397476705,-58.24647941629557,-59.028956001275596,-61.45702980290533,-55.140412798528686,-63.42881422753902,-63.5807185442312,-66.79260958176053,-68.64463737790894,-54.63290385232526,-75.05794297170138,-62.74012548094601,-56.82125655196081,-63.78155586173429,-65.09594323597307,-57.13443128532635,-57.55172929621541,-65.39821256936715,0
-57.4165950070007,-55.5645162159546,-57.78981427057992,-58.77780705396799,-60.459343013261126,-55.17240254291875,-61.76536612988892,-63.36539727302973,-65.31357859598519,-67.43751140277723,-54.376240006287524,-75.26500427916433,-62.014287799260245,-57.848755150780086,-61.176749799474706,-63.91025741517952,-56.29911869169214,-56.193434643878,-65.19482201042358,0
-58.10807116278864,-56.41456473637384,-58.12409016154912,-59.4456528096569,-60.35642875001717,-55.6157565314781,-60.945365266497596,-63.25272566400836,-64.57399859684504,-66.76803406013832,-55.13790261257149,-76.60154953857365,-62.33224819360957,-60.004951356307565,-59.76731086157539,-63.28260870129595,-56.471644827948765,-55.393745921791336,-65.37242346134394,0
-59.73680698877742,-57.93602340435894,-58.9487865416817,-60.618485889681445,-60.94131425336417,-56.03669738987575,-60.954520696829576,-62.99497576536342,-64.53344916384334,-66.62581883875542,-56.51668545512467,-78.56243260412737,-63.53621855121022,-62.568133017896514,-59.66945937062675,-63.17391686681894,-57.38327443340935,-55.05246615225754,-65.56671868031947,0
-61.75595513014035,-59.51601510648344,-59.896976655627675,-61.74965447537103,-61.86427580881151,-55.97762235937676,-61.50419166879641,-62.34092610464797,-64.91182009434853,-66.78034386614823,-58.00555157579839,-80.43457262634841,-65.30583679810005,-64.66464704215085,-60.56182825893241,-63.307132906247226,-58.60350568650648,-54.886610755070215,-65.35099180775934,0
-63.59024187598721,-60.60359212607473,-60.67450658465648,-62.37389249653534,-62.77800967934162,-55.16319363999488,-62.17164306620514,-61.17140294737084,-65.3404249768735,-66.9165019050388,-59.16787147282824,-81.56819140707995,-67.27649984995499,-65.59786572289225,-61.85369418733918,-63.3235530366496,-59.703834946255576,-54.57808701509025,-64.43970032550472,0
-64.79670568752499,-60.88019374435499,-61.14417820723469,-62.2628191101149,-63.44915178405449,-53.61419647105589,-62.55916754462451,-59.559849195379,-65.50584649572714,-66.76461550390842,-59.75903775730624,-81.59583753414162,-69.1318074306295,-65.08360938016608,-62.91523238713962,-62.93367983739888,-60.38825845408472,-53.91496791876094,-62.815295579907854,0
-65.17750455465459,-60.34261905261687,-61.35154975460533,-61.491488741058795,-63.823419464269826,-51.654052312286034,-62.439622680119996,-57.76110150300602,-65.25760398102115,-66.20057635006604,-59.77954512889609,-80.544700729608,-70.6661692861205,-63.33368381553375,-63.30737089344909,-62.03153643527779,-60.57361526708282,-52.896129457056745,-60.75564346673306,0
-64.77077277673791,-59.23053646091221,-61.44354591759635,-60.3548962208193,-63.98053849048711,-49.76528786461238,-61.796349179865956,-56.09341892366058,-64.60698174670773,-65.24496770495757,-59.40396530774352,-78.76424514921122,-71.7561084900952,-60.922523969340986,-62.89000150871663,-60.6917151236993,-60.35202571312393,-51.71723295327029,-58.71276643763367,0
-63.79409839009514,-57.89691342606514,-61.5763390207975,-59.23488672106457,-64.06624886295796,-48.41595408876896,-60.813288920755184,-54.82661787379434,-63.69222040028893,-64.03191094963306,-58.88224413361771,-76.77284620542628,-72.335925051103,-58.555389797469886,-61.84234293173117,-59.12143448125739,-59.91735284730444,-50.70405631686953,-57.15453000348933,0
-62.522029654228234,-56.631763449232295,-61.8023606409139,-58.418781762237614,-64.18195150395589,-47.87115678997283,-59.77275351877631,-54.07094118786453,-62.681510175356856,-62.72142138232135,-58.407860471329755,-75.0331126729181,-72.34078207373075,-56.78189691036606,-60.54443604413628,-57.547483020791006,-59.44205641985741,-50.170070900772735,-56.37931858286946,0
-61.17026385377009,-55.53407670217309,-62.00864847984269,-57.9713037117992,-64.30597321084973,-48.08980612567434,-58.929893480877105,-53.73743200459241,-61.68772881218562,-61.422554207611384,-58.02842296537647,-73.77621374603979,-71.677868745399,-55.79163063427119,-59.399393524426806,-56.11433617920787,-58.979007760496934,-50.278246409912626,-56.40378024590042,0
-59.80418652635152,-54.45589288931663,-61.90581312408888,-57.68177172655124,-64.25227789445253,-48.71653518206646,-58.38575442686798,-53.55772482809192,-60.701135766179604,-60.13408963602904,-57.60490342898215,-72.91250168913902,-70.21974267490822,-55.34487744780717,-58.6401673632294,-54.81177171233852,-58.40189430086914,-50.932438323526725,-56.937576719002,0
-58.360808875096765,-53.100701335497554,-61.13830728559315,-57.16946902979375,-63.747766143139486,-49.23379242354336,-58.07009408269937,-53.21678990933848,-59.63136055587354,-58.788314972190335,-56.893715150446056,-72.12270080077528,-67.8906092699419,-54.92096482786361,-58.25987313740694,-53.52365470767545,-57.46926350481435,-51.80412215201047,-57.51567977781536,0
-56.717695528963326,-51.17928417071258,-59.42100752663789,-56.048370491471054,-62.540892056313034,-49.15594756188902,-57.77748656413557,-52.4850254762436,-58.374778108558154,-57.316970180783166,-55.66453454162548,-71.03068306666513,-64.7493185946553,-53.96457211892999,-58.03025042867011,-52.11386285457561,-55.93120037414131,-52.429819911081275,-57.67588134393052,0
-54.79974285048034,-48.58878152219388,-56.67515240717233,-54.11563720821864,-60.52580857994697,-48.22056759613381,-57.26609356330063,-51.32516903544371,-56.90061708513787,-55.7306496438582,-53.825408166398525,-69.41542870971031,-61.057960960191124,-52.159661688673914,-57.619603563986345,-50.53749558873794,-53.66214915317911,-52.371447826942145,-57.141212064701534,0
-52.648700256617246,-45.50825476307979,-53.0853699871435,-51.45775017487121,-57.80428232350531,-46.473172022043364,-56.34960378260162,-49.89843941537543,-55.28404033106171,-54.1428217782012,-51.480873803237394,-67.3405433580188,-57.26943873126823,-49.587048620982536,-56.732709763148264,-48.89334612287121,-50.738631159675904,-51.35405933370969,-55.904973425043266,0
-50.47472816580071,-42.42056457212953,-49.105939163553565,-48.48343021323458,-54.70940532382311,-44.26835861406018,-54.997440105007854,-48.521190094062185,-53.72075540987087,-52.77409729454898,-48.950427416925834,-65.19804106567938,-53.973447201092284,-46.75243053852598,-55.2659482275042,-47.4421434924206,-47.48154210745104,-49.38483551682127,-54.24073151345759,0
-48.604479113484246,-39.98375348920572,-45.34331735294113,-45.80209558636562,-51.7149521979669,-42.1241700766288,-53.34185906574595,-47.52475118822716,-52.450630841696814,-51.86824801006163,-46.672222392394744,-63.57992228533451,-51.74532955812151,-44.40645793968747,-53.35417997476867,-46.511814512453924,-44.378009614007496,-46.74593254118264,-52.57195770921143,0
-47.381160354243185,-38.833085950795336,-42.39020873616834,-44.02969675765691,-49.295476205074856,-40.526060237976324,-51.626599969634626,-47.11320377453724,-51.6587878127681,-51.588736162604334,-45.065505744805684,-63.06693005909533,-50.97734835197418,-43.26309854885039,-51.325256634926134,-46.36421275599592,-41.94542540260842,-43.90265317088624,-51.29341929019695,0
-47.02347743742994,-39.344904272599884,-40.63537525000407,-43.5556641908092,-47.75622049516713,-39.72113988571108,-50.08877791879135,-47.24285608553355,-51.36307384322976,-51.90706014357646,-44.37037348629231,-63.97118614136083,-51.719570235140836,-43.68819062034995,-49.552300096751445,-47.04202889956173,-40.55277469575604,-41.32856946098565,-50.58113924392573,0
-47.54598099828671,-41.5015805812937,-40.16478035031685,-44.41376096771863,-47.1447857573543,-39.63810176204153,-48.87336775461662,-47.62998187974181,-51.394115883676136,-52.59063655575704,-44.57191020076003,-66.19957676358318,-53.640870534628476,-45.539060919601056,-48.3144436346839,-48.32071938096766,-40.31359282022658,-39.36516818997922,-50.32415588470601,0
-48.726631326595076,-44.85691250300607,-40.738296034793,-46.24988287843251,-47.229106304342075,-39.908594712025405,-47.96593637607795,-47.83508381884086,-51.428782499010566,-53.249313465107015,-45.39286481058758,-69.23275320300591,-56.08385982814363,-48.16826928921618,-47.672697356609575,-49.738252487775455,-41.03908152848884,-38.115115917387975,-50.154508191561796,0
-50.171325808361004,-48.65806179427713,-41.88769761395358,-48.44417807550432,-47.59175462401056,-40.0257993395433,-47.21394944683243,-47.4372018635053,-51.11553699138237,-53.47416347228611,-46.393724219516415,-72.28182482612387,-58.248539941363,-50.63932971764232,-47.45484359840763,-50.74442482159034,-42.30883879131019,-37.44689786054384,-49.608192669728034,0
-51.41740695524463,-52.04397727122935,-43.06161716317642,-50.302515597397225,-47.766421055096814,-39.53591340036278,-46.38746188357262,-46.19195727495381,-50.203331038327356,-52.97882958090748,-47.10526818571547,-74.52785999952557,-59.40678267820678,-52.03669519718358,-47.31489763410265,-50.88024394368406,-43.5955992986962,-37.06658109212143,-48.31260442114185,0
-52.092232196412745,-54.30416818182657,-43.82001188747211,-51.3013638196701,-47.421331874102734,-38.242644856037295,-45.306738482866166,-44.16466195465246,-48.67713438000785,-51.74175604298748,-47.20019636157837,-75.41064842814916,-59.13533655351566,-51.8088236602692,-46.89732603624607,-49.97382216937766,-44.45161107760611,-36.677974448475084,-46.18155084662324,0
-52.022628794842944,-55.06327942350315,-43.96049408861631,-51.2471735269539,-46.473855364202116,-36.295145316758344,-43.93753444282156,-41.73418604287449,-46.79592979672454,-50.04163594557669,-46.59346177472835,-74.81028025509862,-57.43861589377307,-49.969706871163446,-45.99232525347886,-48.22613469772579,-44.641823209296575,-36.11880604808124,-43.48727515916965,0
-51.28136648109104,-54.36080056217598,-43.562406699859785,-50.32377804916436,-45.119236630389814,-34.15263097065448,-42.436304189264554,-39.48835079195062,-45.03393730775111,-48.38981979194116,-45.46159707415347,-73.08301908982071,-54.73752785702452,-47.10809172627663,-44.64473353194586,-46.17262128047529,-44.2067754975162,-35.44504696455716,-40.80320616852801,0
-50.120319631424685,-52.56809460568585,-42.90108612286481,-48.974010682420875,-43.72773608887924,-32.399412153580904,-41.08894895227503,-38.00692876124965,-43.90468457710326,-47.33844197626398,-44.14066601258503,-70.90008379335808,-51.70000895218694,-44.159336257602156,-43.13367630489469,-44.4883075969976,-43.397663905012905,-34.89364063134667,-38.7958957113921,0
-48.86814517902445,-50.23645289665897,-42.32233747309517,-47.72189801578173,-42.70425254182216,-31.53923797996982,-40.21673071831802,-37.66915423603103,-43.78621618532297,-47.290803012628,-42.99681227599702,-69.01045998325897,-49.02108348771215,-42.08330725237165,-41.88262727831104,-43.763360907487105,-42.56550634285742,-34.79034592755015,-37.99828258771514,0
-47.79476178594408,-47.89025455736877,-42.08522919472898,-46.954042138636495,-42.31715934168824,-31.79408791161935,-40.03684045888553,-38.503923177007614,-44.75989906663006,-48.32780760919867,-42.27888483038079,-67.9580139025273,-47.18227080343053,-41.51057706855427,-41.28395493445185,-44.27129806725208,-42.0045814576345,-35.39418874159093,-38.59709069627495,0
-47.014674958054556,-45.86474295026271,-42.25616013111321,-46.77360775922961,-42.58901240220267,-33.015982225666335,-40.562966874179374,-40.17229389213675,-46.56050853561737,-50.15487986785757,-42.031023328870276,-67.89116762041935,-46.306892503042135,-42.52062772164202,-41.538241034854096,-45.854262002810806,-41.83499725766106,-36.76641012562893,-40.349003518293365,0
-46.4366680188649,-44.2178940731176,-42.66360473490218,-46.95262992355617,-43.25989665714724,-34.71564754125657,-41.55453841288593,-42.060010063477506,-48.627773741945425,-52.16070284043947,-42.06673509932589,-68.5099992875984,-46.1253167121279,-44.60566146479837,-42.539153980294834,-47.9386641671655,-41.93813610064116,-38.68648240964478,-42.628265996860414,0
-45.84606091277448,-42.803206603804185,-42.99414925119981,-47.062345888989896,-43.903806816910624,-36.26245842074435,-42.60515220351244,-43.51305421712472,-50.31004004437825,-53.63736935773197,-42.079401991721056,-69.22844086825495,-46.12865653302874,-46.892478017998165,-43.91579722796186,-49.74681715428386,-42.033062910454866,-40.71551750413353,-44.6573562889968,0
-45.02256018360739,-41.40214032254668,-42.930933749764264,-46.669475845709734,-44.0957118338765,-37.119426676811564,-43.28403886693672,-44.07103136667487,-51.092144467858375,-54.029442699336684,-41.78368296152434,-69.42703244293527,-45.79366074115859,-48.47830328028451,-45.164327238349195,-50.573762923088566,-41.803077802437095,-42.33044252788518,-45.778770385260074,0
-43.875152858064105,-39.888437499723146,-42.30704649578019,-45.55159546551571,-43.594951976837926,-37.05678193278261,-43.30783956725167,-43.64382203039509,-50.794381645592374,-53.15136479277495,-41.061327095727776,-68.73224522054258,-44.81898276492391,-48.78471366826524,-45.847539291093234,-50.0586532991312,-41.05009147214328,-43.10814124099089,-45.7004928040303,0
-42.50889650742004,-38.32287924915179,-41.18396056361135,-43.81300033690671,-42.44509000830648,-36.23127013745402,-42.64842368670729,-42.53416310088802,-49.635285255764494,-51.2602225594307,-40.02254735475476,-67.18149388720614,-43.25638756599478,-47.76662045370469,-45.75745586748874,-48.3209407656493,-39.786847927711904,-42.863476169765875,-44.59172758193349,0
-41.24563911043724,-36.990260611921364,-39.874322579784476,-41.907295513046996,-41.001949640652256,-35.15411743822526,-41.58502543961202,-41.350839094050215,-48.18267218683762,-49.00554956551022,-39.007970400815054,-65.26172232287584,-41.5345436271647,-45.95117889277024,-45.025865573682225,-45.961427707531904,-38.28192971728766,-41.74140758820459,-43.04486174131577,0
-40.52680350140492,-36.306203204820775,-38.84003211729266,-40.49406378104552,-39.81695574347353,-34.49846536803642,-40.61724586071447,-40.782214162548364,-47.148401858732655,-47.21025969438603,-38.47084869086979,-63.74643041335927,-40.30663373300625,-44.23221573171133,-44.079183908189265,-43.86242155992531,-36.97866417223763,-40.168849386788594,-41.85604506056933,0
-40.76473393990298,-36.663314424118305,-38.53903025865009,-40.214026478734574,-39.45412939837166,-34.853277175947504,-40.30097666603506,-41.34845742299469,-47.132160784964036,-46.58880987560674,-38.82039262386302,-63.419424160730394,-40.21729652755178,-43.532384155617045,-43.485933326579286,-42.887222201046164,-36.35128717201998,-38.716544520098005,-41.740831719843015,0
-42.17000390197796,-38.25057825711917,-39.247446373685484,-41.4363871955366,-40.27276727617179,-36.48459178758455,-41.032753758540885,-43.19069169115815,-48.37625671471517,-47.47397532217648,-40.25197649541176,-64.7620165664326,-41.63639705823084,-44.43109394584542,-43.71861047051793,-43.55599955847043,-36.72415857437751,-37.892888000275185,-43.05538014908436,0
-44.66843870956615,-40.96744163580966,-40.97158551402453,-44.12460084490042,-42.30844575424516,-39.24384333745879,-42.911994246572256,-46.02562448450788,-50.672077362209706,-49.700044712501395,-42.67789099463273,-67.77165785177495,-44.51915402838393,-46.94929612087852,-44.971000502539894,-45.864147380565136,-38.16801930412621,-37.9924901969095,-45.67787360095896,0
-47.893747224474446,-44.418009919486025,-43.43633047615717,-47.82181550804284,-45.245570414569066,-42.60745421827047,-45.682479436350995,-49.233377072223405,-53.40957483178378,-52.64000512893391,-45.738054507040715,-71.92943771019723,-48.38736348458704,-50.522762750710726,-47.05540602443876,-49.26249582596119,-40.465313274996355,-39.00670908168428,-49.04451076741075,0
-51.29783727960655,-48.034127053789,-46.190251664065656,-51.80139202975114,-48.5315442239598,-45.86826021430066,-48.815667159080625,-52.080019632260004,-55.78894712253799,-55.419629401759096,-48.92370588082262,-76.3747586678362,-52.49152360885192,-54.20871616456054,-49.45817452399337,-52.84153596725616,-43.19389843040101,-40.664092342173056,-52.36224122407661,0
-54.30373974366398,-51.23984459164475,-48.74943318990254,-55.28769506003336,-51.54993078660661,-48.366515426635445,-51.667799889749986,-53.954881411871774,-57.081901309257766,-57.19679657186211,-51.7314156508288,-80.17604850598923,-56.04641431306692,-57.009065614357695,-51.497553140671336,-55.619153436152004,-45.85847551565376,-42.54397018866385,-54.87883845327224,0
-56.503317326422135,-53.647063979308165,-50.776568066889,-57.72330493662003,-53.843621066301665,-49.72948077903604,-53.71040730801545,-54.591020403457165,-56.90695426478576,-57.46368368684312,-53.84207077115239,-82.65983195767097,-58.51185223506421,-58.2435646415665,-52.5861547670192,-56.88497020873356,-48.07273754239877,-44.27085179867034,-56.16763992017572,0
-57.77728247668106,-55.16258358706395,-52.17689690334192,-58.931374108865626,-55.252869052023016,-49.976717702407974,-54.69890384417208,-54.13394075747151,-55.365215032133165,-56.21133074970728,-55.20705934758051,-83.62336417664228,-59.754396358329274,-57.78019879202531,-52.44652901978569,-56.42472854627069,-49.67258049358723,-45.66127019809024,-56.26411652329204,0
-58.32891922182784,-56.00262208386028,-53.112953721290985,-59.15416187460484,-55.95371004974949,-49.49419723670381,-54.752303712446654,-53.07412499843482,-53.01867528909363,-53.933643641072386,-56.0462551171317,-83.39069170706205,-60.067442036588915,-56.079121148652305,-51.231688167769704,-54.585033104399,-50.756915211476674,-46.80229216315322,-55.642767485324946,0
-58.572122388771454,-56.56540959937499,-53.88732440331824,-58.909683594737366,-56.339622926148074,-48.84345177294931,-54.270979390515194,-52.026216327395794,-50.67437473337934,-51.42458626498677,-56.71379788385948,-82.64809034695904,-59.9971228262585,-53.98861662920258,-49.45822147931093,-52.10992158474961,-51.59513582413758,-47.984355391982945,-54.998406101766044,0
-58.9735896547101,-57.26914427500857,-54.80269015804146,-58.78516039325483,-56.85513442033721,-48.545175099864075,-53.78663200243886,-51.50432618598888,-49.11894799286189,-49.51101652557272,-57.546242611288406,-82.1807082300653,-60.107290184166864,-52.43347587060829,-47.83963299554081,-49.87870605013798,-52.50065618263807,-49.576287679650775,-54.980876799417246,0
-59.861237148802935,-58.37348830035176,-56.0087946019551,-59.198333702455216,-57.797965243799425,-48.8722599223519,-53.75106399631016,-51.729116259172436,-48.84326464707827,-48.764237114166725,-58.70732772355811,-82.56284319100565,-60.72804264262544,-52.06605330195296,-47.02639188627596,-48.592307951628044,-53.67597116693078,-51.84274545151506,-55.93167023844554,0
-61.29402350601637,-59.88041534307925,-57.422250299258266,-60.24548137901688,-59.18897157219511,-49.75766398351847,-54.36401461364653,-52.56275776273902,-49.88125216406937,-49.316490275032606,-60.11145444408105,-83.94824219450268,-61.810918609868395,-53.03747553072902,-47.370631004442245,-48.543894070609696,-55.11485210808848,-54.7999518629502,-57.748507120554024,0
-63.01333308752618,-61.52068761863551,-58.72406411832062,-61.6608134304641,-60.73250442297054,-50.82152244473636,-55.4772360787441,-53.56613434143047,-51.79162351874576,-50.81830352812366,-61.43023463530477,-86.00250640248544,-62.92705840414186,-54.94102158149457,-48.776702721366284,-49.527420373365544,-56.5728042438582,-58.13922474901788,-59.89936013162831,0
-64.55546081539669,-62.89199757782904,-59.50088793622338,-62.96456567823985,-61.94561650041755,-51.56749962463187,-56.674120667967316,-54.21694873695783,-53.85238308881455,-52.614776830364896,-62.240991000114654,-88.06669319297829,-63.46901761001937,-57.01083752701685,-50.75772683346692,-50.97998085085628,-57.681806342495115,-61.31585119416637,-61.64562237408522,0
-65.42597555949894,-63.632579728055184,-59.41668145886659,-63.67645221633964,-62.34602280723386,-51.60599555936604,-57.433151638508185,-54.140103267787154,-55.33175264407138,-54.00606690370888,-62.20198451790921,-89.42464529814444,-62.920846206737735,-58.43284025011256,-52.616322161754894,-52.23318207723203,-58.103737108246925,-63.71260535658944,-62.32663333194993,0
-65.30233633104737,-63.59432930841074,-58.37748385309817,-63.543771171828894,-61.656310804856496,-50.84792520073389,-57.34307620066391,-53.29043329005794,-55.76645740622623,-54.52746581829902,-61.214242181580914,-89.60631763035965,-61.11594294032401,-58.681716353942505,-53.71258659446194,-52.80809270816441,-57.69330604107019,-64.85101349693973,-61.63065077008056,0
-64.15927758431884,-62.913691628736984,-56.59253174599801,-62.65892326835657,-59.91509993257615,-49.556753558146106,-56.257766569662294,-51.98242774101678,-55.114108460712295,-54.11053814039779,-59.47735582863933,-88.57768115758883,-58.348001682362245,-57.7217020442657,-53.69099022458869,-52.60582696720592,-56.57324923804885,-64.54196782964073,-59.71457091789055,0
-62.324369847824315,-62.00306799570885,-54.556692976349424,-61.47226452102292,-57.50534805745425,-48.28756429170578,-54.386017777380594,-50.80527005930155,-53.77795303506909,-53.120062578639164,-57.468498858371724,-86.79623401930462,-55.335695127165614,-56.0477642089913,-52.63421098261663,-51.973219849965034,-55.140775090844905,-62.97240327891323,-57.17989169384484,0
-60.37760795623786,-61.39961289312995,-52.891626303138885,-60.62801284652039,-55.02359952352665,-47.67236798141465,-52.21927065080908,-50.39142418510613,-52.43674425479267,-52.19616315709317,-55.78453852565696,-85.04894711990985,-52.983819867226245,-54.491449679084056,-51.02543824990926,-51.55787717084313,-53.93370129929464,-60.63216662540145,-54.851391959805504,0
-58.964339757296884,-61.56362665487985,-52.13427670079404,-60.718906717011585,-53.07405615002469,-48.16595279992302,-50.357148810829514,-51.159611627014634,-51.77874062642445,-51.992340586150895,-54.93943008397049,-84.16432662722474,-52.060737791507535,-53.899668729182366,-49.56565485996777,-52.03682329581644,-53.43744056819823,-58.14178400093535,-53.47340025487382,0
-58.5578918270134,-62.677327634645664,-52.5230634779545,-62.025717648710646,-52.03611151264337,-49.82387289434227,-49.26857281359395,-53.10254866036545,-52.20768492892196,-52.87949811725999,-55.162567089403325,-84.6838372441839,-52.88534065907594,-54.779494613037784,-48.88311866195567,-53.794093805339315,-53.87742046766006,-56.018243144687204,-53.4087693003357,0
-59.30320553680714,-64.56185740145098,-53.90787503431432,-64.38521440685032,-51.94268132865766,-52.247080285543404,-49.126542397765874,-55.75233577504124,-53.68328931003543,-54.77961231913862,-56.32193425844212,-86.65317378489694,-55.1996807905164,-57.093614133665476,-49.29601904914129,-56.72174305481808,-55.121187946222975,-54.511157221915134,-54.5040723620425,0
-60.950664433357815,-66.7058933239595,-55.77393170544913,-67.19654751443593,-52.46778981770661,-54.674183394248786,-49.731986755571384,-58.29373427226253,-55.70765302660137,-57.143263531334036,-57.953681632683086,-89.57238655541015,-58.23101081854195,-60.235716343973834,-50.669778767856144,-60.175513372380415,-56.68494541848509,-53.52461599610018,-56.12481106281862,0
-62.941048286129416,-68.43600931541897,-57.412186838371625,-69.60857372270625,-53.0675606916761,-56.23260907042951,-50.594192432675854,-59.82925616799859,-57.49959903123948,-59.12121147776003,-59.42714424715677,-92.56314476295712,-60.9633499610587,-63.234559590481254,-52.459047706524906,-63.14854764799859,-57.88755541350022,-52.692624342698586,-57.389578744434544,0
-64.57562809575354,-69.13154145741953,-58.142322009076835,-70.78330154130005,-53.184923175869336,-56.22178147479718,-51.10461563421279,-59.66793784778765,-58.25871575743619,-59.836524380002295,-60.14822448194298,-94.65070735134307,-62.4874600837175,-65.07610374002903,-53.88769119375491,-64.5753509925314,-58.06428122312969,-51.54211117605472,-57.480674921421155,0
-65.2659762520079,-68.4590541405341,-57.56277114724177,-70.19829298726393,-52.49245430582206,-54.38271034580635,-50.79157445050483,-57.588912994009206,-57.47802830735794,-58.71435456022689,-59.78233218552562,-95.11630053374404,-62.34689684144166,-65.07807519864909,-54.254401082123444,-63.714469831953814,-56.81989967782605,-49.73420220869351,-55.974073648261346,0
-64.72648375144371,-66.49333118146126,-55.690863832382675,-67.8290460646824,-51.03169329091328,-51.00484384531932,-49.51186044060982,-53.9347625070965,-55.13886171921539,-55.700991096074674,-58.366485227714406,-93.74133145188281,-60.69827920788873,-63.1326107607089,-53.20164789635729,-60.42341503344781,-54.1818518583044,-47.24138398767877,-53.01476446965712,0
-63.07507020552185,-63.710418840554006,-52.97109452155129,-64.17505143421475,-49.22397667713991,-46.85943618662194,-47.5372656677388,-49.530668526386386,-51.74945321161289,-51.32430701559058,-56.301523038348904,-90.8852110921958,-58.251243607257074,-59.75753021804356,-50.879625033301615,-55.2592993103184,-50.62462109900156,-44.42055793890046,-49.301367905870194,0
-60.76802848387899,-60.81073937884841,-50.10994483244065,-60.08115465254443,-47.70418818209377,-42.93972915544502,-45.459158803368595,-45.41452325191781,-48.17061187280551,-46.532481414763865,-54.189610000290905,-87.33123229160913,-55.96501686460235,-55.89877955804392,-47.90007090506685,-49.32379290863732,-46.915292611714435,-41.906604647209,-45.84441070400957,0
-58.453775316772834,-58.49933659879735,-47.85283324984155,-56.481176269606785,-47.09679016575147,-40.16079535268232,-44.00079442977755,-42.5315509067557,-45.349661916804024,-42.42434896141815,-52.63198209605932,-84.02488451016032,-54.672734896249615,-52.61946515170309,-45.15099733791641,-43.96109758515988,-43.89078201524705,-40.42045402875165,-43.64176770269457,0
-56.74791871143618,-57.24752149929652,-46.73200832866387,-54.096139603214574,-47.767334667162885,-39.06884164900456,-43.75515004402677,-41.44336623057681,-44.00650431431276,-39.90952902131207,-52.01487757383009,-81.74091875656622,-54.73528338857531,-50.735342961137796,-43.490416328556385,-40.354823746311844,-42.19040076693551,-40.50771674483231,-43.33330169530822,0
-56.03680753201339,-57.15076821101476,-46.90228002539181,-53.226927209434336,-49.66824672173229,-39.688923546190885,-44.966986189783135,-42.177871144430995,-44.40761871036213,-39.441782236071006,-52.38822007217569,-80.83706847610979,-55.88608043763567,-50.556681368005634,-43.45198015745024,-39.18481250092988,-42.06308466276007,-42.32704554566281,-44.984633510403334,0
-56.347934335439994,-57.90552472420383,-48.09062112398117,-53.68177067668736,-52.31126745173897,-41.53220886522162,-47.40921573396452,-44.23485102814134,-46.27334927453476,-40.87902645041995,-53.44680384083908,-81.15281637586232,-57.30241350549879,-51.79608135988283,-45.03738137408924,-40.42314336948316,-43.286745979739585,-45.54038309253933,-48.046196346624434,0
-57.38795370133458,-58.96779788951604,-49.735136747884916,-54.916499894740625,-54.93856750195696,-43.81410552640681,-50.45943620254225,-46.8000265224146,-48.9083974686973,-43.57447528558034,-54.68093228173446,-82.13999555535251,-57.94765380025037,-53.72878464559887,-47.73069233856558,-43.39688416698454,-45.284230375189665,-49.408827789348805,-51.56022138663673,0
-58.6739938461442,-59.77907319855733,-51.201822896217315,-56.272001106257754,-56.776169654468184,-45.742469654202544,-53.29330585657723,-49.028928949457274,-51.44432815493518,-46.60196851608587,-55.57809805697989,-83.11467847476597,-56.99995502510791,-55.48351171850085,-50.66939776157057,-47.03080673258888,-47.33615485573407,-53.00737540116365,-54.48013466375292,0
-59.72735473108477,-59.991818304642145,-52.023162769437356,-57.23975892166621,-57.3043032840751,-46.79727156970762,-55.15251539468059,-50.325525220979394,-53.13349665834854,-49.06207195843444,-55.824067016818155,-83.55180771343946,-54.23228653005057,-56.37752493814732,-52.93936748593922,-50.208491216327474,-48.83606411268412,-55.511221163606315,-56.01897955070131,0
-60.23190892878625,-59.58749839498396,-52.046156498989276,-57.628566083655414,-56.421332430105586,-46.87536351038815,-55.57021129556817,-50.49439816956377,-53.5660458641085,-50.3392939595654,-55.40176097389995,-83.28139421657878,-50.16469680440364,-56.143179471513356,-53.86248841542095,-52.10335016193811,-49.472021166233404,-56.43131078987493,-55.877128863164415,0
-60.15097242751914,-58.88990937475254,-51.4877643325935,-57.62146250146175,-54.49123757940712,-46.3028691310626,-54.526381837220775,-49.772824466598905,-52.787400954424285,-50.278124076859676,-54.602984797576866,-82.55704371191321,-45.95835365257914,-55.01548793107121,-53.22658240958178,-52.42158749132379,-49.322548171802794,-55.76831426901134,-54.324974044523266,0
-59.69899562574462,-58.40765341480937,-50.81655841065622,-57.646221628332235,-52.19483410339426,-45.65807604566395,-52.41994427671326,-48.681603750673496,-51.224234989785025,-49.16887013919762,-53.887146970496,-81.91903989569248,-43.020256786605984,-53.598850923272124,-51.31844905362535,-51.42825818310735,-48.77451871891731,-53.97167179317608,-52.05922340728581,0
-59.226219555755506,-58.603856484091665,-50.547653379290075,-58.15114616463064,-50.281953098349625,-45.51367941652918,-49.91174959107351,-47.79694600905801,-49.49254455296334,-47.59753058585902,-53.685825883493024,-81.93685593062706,-42.49903102572053,-52.59983082473307,-48.79381674932775,-49.7938269564054,-48.33606909570555,-51.759639162430474,-49.93231331741248,0
-59.03073727049184,-59.65057900917097,-51.00061715769025,-59.34349390059697,-49.28260800144417,-46.16410781045962,-47.66690588493251,-47.49725109643219,-48.13096808773937,-46.18632731770277,-54.196754401049844,-82.90510430640326,-44.82242523240027,-52.4989220554994,-46.403003532639914,-48.29309952725426,-48.386913104300305,-49.835389754743034,-48.62044625078478,0
-59.22486476557233,-61.315614368009584,-52.16174905733969,-61.05185066954244,-49.33437172832303,-47.49407839446323,-46.141825758567684,-47.83228990810314,-47.41586714505258,-45.37746382741752,-55.298154367996204,-84.67198351462804,-49.49901136109817,-53.34404123422751,-44.73100599357935,-47.523476971601355,-49.0126533167019,-48.65190640256622,-48.40640399200548,0
-59.66133573207549,-62.98239610076002,-53.654448840908074,-62.719876980757604,-50.13684797303614,-48.98610072214575,-45.439563819451834,-48.505512387344915,-47.26949159831862,-45.28053135500505,-56.567751272359885,-86.62073666881102,-55.21749939283645,-54.69433931471611,-43.99288948906527,-47.68814159308059,-49.93473794508036,-48.25787622848499,-49.098125387624954,0
-59.986533471241025,-63.84278027833614,-54.86984473329162,-63.5771068147601,-51.08673658089185,-49.90108623225923,-45.31836198616834,-49.00492269474129,-47.323573415273174,-45.662204053179835,-57.441557005690804,-87.85837834740538,-60.26176965242131,-55.771110986252516,-43.99219675297308,-48.54840966070912,-50.604512035078855,-48.31553103294014,-50.13971554298136,0
-59.76135431310148,-63.15807304923477,-55.17007600534053,-62.889584559371,-51.50371987801345,-49.52525069472813,-45.306497692515734,-48.79048227667583,-47.07403049695315,-46.040184941472255,-57.410572626572225,-87.51008251969796,-63.06476625869643,-55.72426700723836,-44.21900732137491,-49.519105775182915,-50.386507969488804,-48.24132724624604,-50.82845566814287,0
-58.653461793327104,-60.547373856415035,-54.14055182212195,-60.25169998409452,-50.912407182233544,-47.446080341115945,-44.92451353947083,-47.51613318897227,-46.1110874228692,-45.88733747981388,-56.23281414589718,-85.06499607992276,-62.7563160516597,-53.96582572018676,-44.091817518039285,-49.911248476252,-48.81431360212538,-47.46431046521858,-50.60236359898594,0
-56.58016909834393,-56.148509919029436,-51.750386323520104,-55.7604439194258,-49.22527009166768,-43.70622296104818,-43.87971194860986,-45.154240393556606,-44.28633802796821,-44.81945412125029,-54.03342454174427,-80.59057066290039,-59.45869772536666,-50.39670045189801,-43.199128584316156,-49.18164794857898,-45.778448494081346,-45.65738920389559,-49.24053018682501,0
-53.77494170145225,-50.6239090975055,-48.39435235389572,-50.038627147618826,-46.793698279543776,-38.81861550083873,-42.19610953059387,-42.01674245289874,-41.7930585340188,-42.73998588326533,-51.28497294094095,-74.76720769212402,-54.257434167021856,-45.48064959244992,-41.485907760028006,-47.137329401915075,-41.607714471194996,-42.89048266421337,-46.94160815492517,0
-50.70296569859874,-44.95951796445196,-44.7513965571698,-44.04731803094431,-44.26110089147602,-33.59159002332644,-40.18514407200172,-38.62512533178887,-39.08488047058127,-39.84927324032365,-48.62611698322295,-68.67841162325747,-48.80587461956856,-40.08995773802311,-39.26851922320375,-43.98040140930818,-36.966058181110455,-39.601815524673,-44.21152880445564,0
-47.92260192512137,-40.18471059577192,-41.577398270269775,-38.81826237916532,-42.34011566071298,-28.898023309800244,-38.33844202458033,-35.55037667475911,-36.733286468002426,-36.59018620068614,-46.654289320705324,-63.49210652831409,-44.76968487069841,-35.24649765690601,-37.13750417745277,-40.25217831268332,-32.667044121821824,-36.46569227291842,-41.677539538382675,0
-45.893361683160855,-37.06009701726824,-39.45641270291514,-35.146224307406605,-41.547656787831976,-25.418609163490533,-37.137319750306744,-33.23293487579378,-35.23024814924664,-33.50780637412142,-45.717805478694494,-60.092106600655974,-43.260690788943556,-31.797500570984667,-35.739083225774415,-36.653274809906975,-29.420786780434444,-34.155455985574264,-39.85259904581552,0
-44.81858180577027,-35.8608114213677,-38.61709031634575,-33.37046251550004,-42.01496829094045,-23.469047624077877,-36.8707582910884,-31.868700188809427,-34.829076172686754,-31.09513430182146,-45.803264292033916,-58.814585785165406,-44.47915026280606,-30.16295924813731,-35.53558511770891,-33.8293237406706,-27.62010237399449,-33.107766986203,-38.962164393063446,0
-44.5621661149222,-36.306639291047276,-38.85394363532354,-33.291160742737596,-43.41707996542302,-22.939519801996518,-37.50563474329043,-31.370076086387353,-35.452765844657954,-29.649456114851333,-46.53619914055214,-59.35600658658073,-47.661081928869514,-30.2129314917921,-36.608747622055446,-32.1697169276011,-27.216148460412377,-33.349297388847354,-38.86880597683628,0
-44.7249163886132,-37.71301122668113,-39.63594951139171,-34.30133319743255,-45.103884766236696,-23.415334065132434,-38.714721235760024,-31.46481655890735,-36.75825139306848,-29.24206360715729,-47.346845770530464,-60.93589591557383,-51.40125832080771,-31.37215198699475,-38.6372808049814,-31.744152605248633,-27.77973567653396,-34.50432039091574,-39.17515510270564,0
-44.79683503434043,-39.251556566822885,-40.30219071642513,-35.622983615857,-46.326032369715556,-24.363321700901597,-39.98968914905367,-31.824066927532083,-38.26416536656236,-29.734465080296058,-47.68259649955392,-62.596341120396126,-54.171612725383056,-32.84337433906743,-40.994622399758285,-32.32128859855548,-28.665596087852517,-35.92101641727269,-39.39730431662596,0
-44.35521493354251,-40.25098120296522,-40.30083053750078,-36.5912112361328,-46.4997485336129,-25.342246752103467,-40.826654085577104,-32.19717386401985,-39.523852296583065,-30.85671494981619,-47.21275190450502,-63.55836812230091,-54.872386710214656,-33.89968756314986,-42.96145784016985,-33.485657910690556,-29.247259549840056,-36.89875461280805,-39.16983612805955,0
-43.204930721310625,-40.39513453223516,-39.354854384030915,-36.84835755270414,-45.382317717184925,-26.1228693361138,-40.87772894967993,-32.46435373452018,-40.23974167439394,-32.27435401230957,-45.920942980626315,-63.465133814668874,-53.18288204972825,-34.103305524660115,-43.937839088925166,-34.76411630218554,-29.10556102758208,-36.902859754472516,-38.36442484001885,0
-41.45979791313106,-39.80846433331645,-37.55405306626429,-36.43946102257118,-43.154145063392306,-26.736665558247832,-40.074046215606536,-32.65288346451135,-40.34142285429868,-33.68038552862236,-44.105407836521884,-62.48728513773575,-49.64732601869096,-33.43701553382629,-43.640586119000865,-35.7761206326662,-28.164307255188778,-35.7496107472346,-37.13802821037602,0
-39.47585971943663,-38.93694687836086,-35.282709827306114,-35.718949001262565,-40.31974451917713,-27.382505077127373,-38.61426257838662,-32.85485206091371,-39.94344485155025,-34.823459460300484,-42.229610477807306,-61.188929830133134,-45.412144902548114,-32.24403748863242,-42.15575294252821,-36.29606625106398,-26.66655134659017,-33.63713430736837,-35.83319897804383,0
-37.69931619069207,-38.30890286873704,-33.05265162802836,-35.15220452418059,-37.505497651903625,-28.276426405314176,-36.86343780797075,-33.12909078677195,-39.24739018580719,-35.515351376784054,-40.71979906793721,-60.2497389599958,-41.75656113279263,-31.048797945716057,-39.868382206804526,-36.25772902022964,-25.045100462681102,-31.052202759554493,-34.814944478626586,0
-36.45925808756341,-38.25135383125442,-31.28310925857267,-35.0668567548504,-35.20747833275127,-29.482377377066715,-35.178859311327074,-33.407375758829204,-38.40411359105635,-35.60213064637267,-39.764021959013064,-60.129245486171875,-39.573409412140066,-30.305944086357254,-37.27714041665678,-35.68563803142324,-23.715877140920004,-28.56717594345738,-34.282919470368185,0
-35.8391166154644,-38.724718157652795,-30.161666116564493,-35.5038220929298,-33.63512437434011,-30.8485532584549,-33.78219219719307,-33.49981229276969,-37.448234295606206,-34.975898803647446,-39.24419670739694,-60.85675494514192,-39.046379073206694,-30.224529928584094,-34.81736398607643,-34.64708476297432,-22.923599089028407,-26.65343199122793,-34.1898870215045,0
-35.62747084168798,-39.292017943783414,-29.584032740964666,-36.175896127511656,-32.655154727606394,-32.024384337037326,-32.67376717962653,-33.14812415550562,-36.277231245817845,-33.5790058352247,-38.77727026317714,-61.98207653425429,-39.591340975363536,-30.684550491649638,-32.70718166561709,-33.1987540646377,-22.645815949342836,-25.52582533946858,-34.24487583023549,0
-35.41040643119923,-39.28489040193333,-29.23230698042287,-36.5892824617974,-31.8926525013202,-32.591946730841634,-31.662325025970354,-32.1476846025365,-34.72539568377149,-31.446173692548086,-37.891467519222914,-62.748192235913386,-40.1215677683335,-31.30992351794954,-30.91348610130557,-31.39258013395193,-22.62898156767063,-25.111022557718517,-34.0416662459952,0
-34.735420335295316,-38.069382365173695,-28.717384383052707,-36.23802193208238,-30.904975949330574,-32.21879646269567,-30.45416930227405,-30.44305594249735,-32.65452404849442,-28.720580526651133,-36.23003769942242,-62.38228964487197,-39.48361227844551,-31.622208331155065,-29.202233665601046,-29.29295426464628,-22.497568476641437,-25.10401711213891,-33.21829928597873,0
-33.338427646119676,-35.367024650551784,-27.780814368970375,-34.8522915111658,-29.41122088492799,-30.824876820381697,-28.815654864999704,-28.207964498363015,-30.071977101913177,-25.67855266609266,-33.756697502593006,-60.456045399950135,-36.95899401175502,-31.268898435612932,-27.298363582726047,-27.037726865109313,-21.94518676695413,-25.136311324048187,-31.636551918115586,0
-31.291067483069394,-31.44974833382996,-26.421485923996258,-32.54258340591415,-27.432412439926157,-28.639473783725265,-26.69307932939862,-25.816840937062867,-27.172306569493312,-22.69047249326504,-30.82530161186602,-57.10851941502442,-32.58228270636008,-30.17543473298562,-25.037456072550043,-24.85377859188224,-20.877031430564582,-24.934617392088008,-29.453812663874608,0
-29.036324016092983,-27.15332501527621,-24.92504311676637,-29.81198671235697,-25.317358232458435,-26.153078344011274,-24.27126196770614,-23.742492378205696,-24.311036346883352,-20.149755077101915,-28.10722396766325,-53.074648094320324,-27.18789689107065,-28.592557100047006,-22.476788235464063,-23.039927545316896,-19.47561453743081,-24.436676096544627,-27.088091901350204,0
-27.24920687978636,-23.6491806681352,-23.742856448980472,-27.38634073602828,-23.599790852935545,-23.937187507379445,-21.90239070388661,-22.37222935895149,-21.872093591317576,-18.34153662152726,-26.355594838997167,-49.4569613853777,-22.119093955620542,-26.97806667319283,-19.877082825132277,-21.865435037225573,-18.12395005813486,-23.78105583112942,-25.04359157804455,0
-26.616268388957735,-22.094339890392146,-23.320558132859638,-25.977034119585255,-22.797877214025014,-22.456628592737516,-19.991320712759634,-21.871289797916695,-20.14193687185523,-17.359219434832927,-26.142461542021238,-47.368217453171226,-18.762534444325848,-25.81779498934904,-17.621395911259544,-21.481042985688834,-17.26979425427229,-23.234387726672338,-23.72605441688928,0
-27.568445500089897,-23.225979511525576,-23.898864925673543,-26.01372602613432,-23.190439109254605,-21.89591664778293,-18.837312801152162,-22.101680301933616,-19.19410384069224,-17.0550706917085,-27.620057480668635,-47.521442222915766,-18.03732254978272,-25.40696992808839,-16.0636759448409,-21.829946750098447,-17.237391147925493,-23.045204340885515,-23.271408886409976,0
-30.08855994466831,-27.069332639153934,-25.387398039914913,-27.475024552809195,-24.680496020202106,-22.094755232522022,-18.5170123399723,-22.658523234835055,-18.855491713660616,-17.074548825509726,-30.420480604275006,-49.949613797414116,-20.047052434317045,-25.710237697097813,-15.387629584659669,-22.625413396976104,-18.084756273976378,-23.311411087295838,-23.485853622543388,0
-33.63153375787731,-32.830092344985346,-27.330964810201415,-29.847276186078396,-26.77015176363854,-22.585159944588543,-18.824252185574995,-22.98391238620216,-18.742851628528662,-16.939500227507104,-33.704795812048424,-53.920644327255346,-23.992124837175478,-26.325333368738058,-15.504317741852827,-23.38465830879038,-19.528515938436165,-23.88406874894623,-23.890810338079486,0
-37.263639741445,-39.08875909625964,-29.05271785143864,-32.29656891488258,-28.72640272759954,-22.784334476444496,-19.358723779004624,-22.58791218043973,-18.425110335871278,-16.225073224796677,-36.419423018033676,-58.15579672669054,-28.4442111061523,-26.63474985442433,-16.096983889429733,-23.583562376694896,-21.03456083625645,-24.416365450527206,-23.925726956034303,0
-39.922077185276706,-44.18469825406608,-29.867596406253238,-33.93530962075324,-29.82251368904677,-22.212818217255354,-19.67014863691894,-21.233439204471345,-17.589195410319373,-14.708656531130574,-37.61899991793443,-61.22449850027075,-31.825081292873218,-26.033523757028885,-16.736990855899776,-22.82404386350866,-21.98502052343688,-24.482792864633858,-23.171625547132088,0
-40.73780064135627,-46.69336376760669,-29.31592883641255,-34.11696677121667,-29.592969979892903,-20.685500782277717,-19.43320968358406,-19.04672166207849,-16.17734474306728,-12.470088417221408,-36.77136188337411,-62.00429875545931,-32.94340214667722,-24.175331210608384,-17.052902028315096,-20.987305815294636,-21.887437926697864,-23.749425098125936,-21.538337220029607,0
-39.28894746670974,-45.82371315981562,-27.309376286486735,-32.62926260691399,-27.982950942927683,-18.37616191840445,-18.557743387743127,-16.478915705447612,-14.409178270717714,-9.87204262743037,-33.91430980156594,-60.02676226658072,-31.3777564816071,-21.11745112222197,-16.857075193610445,-18.284648892576154,-20.52711139916036,-22.104630962384288,-19.31157628191255,0
-35.7563214395897,-41.66120636550678,-24.19179850569211,-29.774129760666032,-25.39348696310951,-15.787906328701304,-17.2475642835174,-14.184829244968256,-12.731493933314447,-7.477377912508904,-29.67021795927731,-55.643995483954804,-27.627918717920526,-17.360593869437746,-16.23412444637623,-15.236652338869941,-18.06291427350575,-19.75163512489541,-17.09199613825155,0
-30.86213197445077,-35.11483310637439,-20.627298120222832,-26.243103615805484,-22.53830607543697,-13.570971055119934,-15.915834699061106,-12.791014999518842,-11.64304964160331,-5.858374370934817,-25.045331525505226,-49.8939149783404,-22.92291085097128,-13.697841585711624,-15.48699056776765,-12.514027133760262,-14.968862888438384,-17.158216355239436,-15.57618513341435,0
-25.650706614504493,-27.631216834057913,-17.39400962010982,-22.878211112609254,-20.205080669053707,-12.299673981564425,-15.030648509870442,-12.679697932266468,-11.503090140745048,-5.406942817379353,-21.117970453522247,-44.155757975734446,-18.800028477347762,-10.964596971996526,-15.00604434024386,-10.73405951430811,-11.882486762639004,-14.918054847398446,-15.302495079643226,0
-21.15733328381752,-20.73997895773633,-15.12393082638337,-20.371342826983984,-18.971935691768238,-12.251737149770127,-14.91302232472939,-13.829401698422908,-12.357891458371752,-6.174059118025334,-18.692880477117075,-39.68451983158942,-16.56661639233479,-9.742239456416332,-15.075550758514817,-10.24239329097437,-9.384649023739648,-13.539747797376593,-16.41948924201679,0
-18.126236506093555,-15.63568902032091,-14.130125380961587,-19.063983667729854,-19.03194274749832,-13.326618993569513,-15.61521705295414,-15.826106679593815,-13.908696124357773,-7.848937078236862,-18.08620658608564,-37.240180816133986,-16.886308534886407,-10.175191680400252,-15.747603354474174,-11.009696626016169,-7.839869834276701,-13.290489501812946,-18.618908332410548,0
-16.81724302044324,-12.871605467373795,-14.326574906253816,-18.86144909630844,-20.134590939161452,-15.078429755580324,-16.87594337702142,-17.989414857735778,-15.586906211124875,-9.840332841898734,-19.055759827910844,-36.882013202086384,-19.57338465102945,-11.916979194031256,-16.78747677097922,-12.631305323981405,-7.2991781546045065,-14.099627521078158,-21.210406756912494,0
-16.989950046122747,-12.289967563953747,-15.297396850648493,-19.32033278308318,-21.696995190778516,-16.883585449836918,-18.20561576034158,-19.604238472916027,-16.745664864522023,-11.465566937714206,-20.926390375554895,-38.02737592214423,-23.695896096783255,-14.259621311427033,-17.74927377735537,-14.464301013878671,-7.527551736785586,-15.59124363987569,-23.34845385218558,0
-18.031477870956785,-13.164419877934282,-16.451856983239313,-19.834523465204896,-23.00776084912933,-18.145536034437118,-19.040691504953,-20.14303333340435,-16.871635330914128,-12.155159114346876,-22.826541539203564,-39.70133283887053,-27.901120199332254,-16.365996791830494,-18.128461415690417,-15.826359890491174,-8.106860776148926,-17.200637583567044,-24.299867178276394,0
-19.221607000571943,-14.537904953929205,-17.254435589632678,-19.895897307090888,-23.495564520435657,-18.51205017676534,-18.95925962563839,-19.451168066018134,-15.788068246758476,-11.650999955452505,-24.00044153914166,-40.93363392937724,-30.88742149617246,-17.57287467657588,-17.578604669988234,-16.236537135298757,-8.618593571010488,-18.381934553776556,-23.706803898090605,0
-19.988812666922296,-15.579804075588644,-17.400396586292853,-19.284534234038293,-22.92028906838213,-17.97936671422642,-17.83310421334041,-17.782615070374828,-13.725614906666744,-10.084064448376605,-24.041250664015568,-41.10856198706072,-31.812838205313827,-17.607420610446265,-16.064609402756606,-15.569242196144568,-8.791293788862951,-18.78470754805085,-21.702856193917004,0
-20.103319477491553,-15.871054642092986,-16.90880659782241,-18.149088447827438,-21.452989100263654,-16.878622089778336,-15.89330189707306,-15.7080199242399,-11.26719767676678,-7.938185117647365,-23.003649128767606,-40.17070634313213,-30.54031272466651,-16.669739731944446,-13.92189346519164,-14.099074383244472,-8.589896075347369,-18.367709975480114,-18.872025561831244,0
-19.699507076159133,-15.484210757347816,-16.06364338192123,-16.9112289199337,-19.579382494500095,-15.71104046926908,-13.64218666752567,-13.886696086052014,-9.13945337171444,-5.867778752498712,-21.32496171039946,-38.579207490707724,-27.60922969425911,-15.313292465625794,-11.750162615295565,-12.378898337973588,-8.178276190529113,-17.370223783193282,-16.024049070238082,0
-19.192978152615744,-14.9064064298931,-15.295075364273973,-16.09954810816611,-17.929355412849553,-14.963399627672647,-11.705805809180779,-12.853598344370257,-7.990432112163457,-4.501562824455426,-19.654625881430537,-37.105430797087145,-24.021497862679986,-14.233994025482007,-10.23973930299324,-11.062014106508899,-7.839245872738121,-16.21745689114078,-13.934854227081651,0
-19.08229125192626,-14.797296667012558,-15.000830281710481,-16.129428557545598,-17.047730493908713,-14.92157413707672,-10.625987527089636,-12.842500043705474,-8.172661769308435,-4.240859320890954,-18.61222558180433,-36.50590423078666,-20.88160517200622,-13.995784939286896,-9.933185788778623,-10.675193382728876,-7.838814711498023,-15.349255581802973,-13.08770964510148,0
-19.74466355454248,-15.706640825116539,-15.40291228162163,-17.141124583220932,-17.217115337885584,-15.580451567998168,-10.694021880739031,-13.734340496349951,-9.642752059295292,-5.151491566634848,-18.588921725860466,-37.22438146929481,-19.04949808762857,-14.821232757325944,-11.042483361448904,-11.449919256308768,-8.31803433113975,-15.061340943174965,-13.538180955734001,0
-21.263712826391014,-17.82551704008667,-16.45568081538922,-18.925649008996,-18.3584726649402,-16.6478786756933,-11.846861787446642,-15.110422238877751,-11.972619813742327,-6.94583157464073,-19.620139499833883,-39.204478370403265,-18.88354901719917,-16.490752374786187,-13.349356647776741,-13.23327278447076,-9.22035976908726,-15.385562836561506,-14.91192942958236,0
-23.414139280229563,-20.920784095841384,-17.89646731453564,-21.0236068038861,-20.09954589997905,-17.697478104173747,-13.720851597723236,-16.44663082543278,-14.526011795259196,-9.11952287743314,-21.42670129166107,-41.932945939385355,-20.20774930902307,-18.44643146177765,-16.288500028487316,-15.569898080611335,-10.34027760953234,-16.112145240620407,-16.59012546754373,0
-25.745829796975553,-24.406915735676492,-19.35223913301616,-22.894073237529987,-21.91890478549581,-18.3468349617105,-15.780531127592626,-17.309828655047887,-16.67552784953864,-11.12742517248046,-23.539275962045068,-44.63193583084813,-22.435887378112422,-19.99955074995432,-19.128218809472244,-17.858657721913417,-11.4102290838062,-16.88161789896118,-17.948891051085223,0
-27.751761768180497,-27.546132112934473,-20.484153230276785,-24.11588960309559,-23.336006535759307,-18.41925421092566,-17.50280971226107,-17.51444864393511,-18.010754802929537,-12.564643559348532,-25.476852246139174,-46.55152676783811,-24.81826625741439,-20.593768139912974,-21.21109066941667,-19.557130348627783,-12.214050888707641,-17.336605543982888,-18.59115814873419,0
-29.024315701962045,-29.672557442319913,-21.0824469545466,-24.51013242345135,-24.043081782427592,-17.99188385725686,-18.517295864830626,-17.147548260165358,-18.4290247872388,-13.255701687354764,-26.878341952924156,-47.212693587768634,-26.677544634330413,-19.990879448685803,-22.13731637641372,-20.327259181678983,-12.647055946427779,-17.24168650451584,-18.45194438453536,0
-29.397984580530988,-30.413625932395483,-21.13433273077346,-24.196164793135488,-23.992704160047,-17.36812302243041,-18.71468438619429,-16.51529114527836,-18.13980144286996,-13.282714062263839,-27.602005002661627,-46.568835488124456,-27.61538073953851,-18.36584146135931,-21.885704100662146,-20.13122027579559,-12.755537114326003,-16.583219765222054,-17.798598751921308,0
-28.963802897008122,-29.763858155856138,-20.781522404526346,-23.497715792419555,-23.354572560443195,-16.924362489623856,-18.228811061225027,-15.976242374920123,-17.526886870656565,-12.892129794164669,-27.70371369814966,-44.96750017559327,-27.566533569822823,-16.216650353854686,-20.771010160432603,-19.19124937753563,-12.678054564300773,-15.550099164110238,-17.072033905952207,0
-27.999105753531435,-28.038742260778143,-20.22769497252979,-22.780914972798325,-22.403615177031828,-16.930604795086303,-17.34191132446632,-15.76738625784787,-16.96195747156978,-12.357022914606679,-27.352487562070916,-42.974915060088684,-26.738578713927712,-14.161455250040023,-19.291580506260637,-17.87220909503849,-12.553925369894515,-14.442081512345144,-16.673046326315877,0
-26.8193833836857,-25.713199027193827,-19.615623880111826,-22.262831949914503,-21.368427895121403,-17.391463016323463,-16.33287369072972,-15.867554896763991,-16.620113974159757,-11.828428216547659,-26.70504540213614,-41.113318464307646,-25.458512962790923,-12.675002978336908,-17.905991264891266,-16.51144828499367,-12.415804797439343,-13.520246013587004,-16.753988398651725,0
-25.662474325371353,-23.255988013298666,-18.974696014135898,-21.920433486109303,-20.351039922995422,-18.02427925967863,-15.377213511362493,-16.00393045479533,-16.4191373888564,-11.28379245394599,-25.842184105756346,-39.666784097375405,-24.041207969394502,-11.916564389338243,-16.87178049896552,-15.310305044555866,-12.162592088976318,-12.908222796469932,-17.15127908153011,0
-24.60605532975041,-20.979448355228516,-18.2134158525848,-21.48975241721783,-19.30127506599546,-18.337984215726102,-14.488928755468235,-15.749442196373012,-16.055949359576285,-10.54123790204679,-24.746447984186258,-38.5849917607027,-22.68676424602974,-11.665214726671337,-16.15755999249697,-14.277612439919842,-11.582791273152225,-12.536023555839412,-17.436080996634505,0
-23.581882527061634,-18.991488252604803,-17.19608587196705,-20.593497295284543,-18.089455453236923,-17.825781122053417,-13.56073546477615,-14.71393778634108,-15.163608952528929,-9.372614093681005,-23.361503531041382,-37.55625729430542,-21.472385542639707,-11.427878499866539,-15.49941153792852,-13.280498947198762,-10.458352715527353,-12.18669637995171,-17.104085775821062,0
-22.441963467857907,-17.220385597843947,-15.83122961603817,-18.90727664438748,-16.60234493807804,-16.158341351328772,-12.440995227504287,-12.71162238392268,-13.482629672529734,-7.623756401001667,-21.66538966847895,-36.173413399901705,-20.379713363968424,-10.6379241013924,-14.53335659295663,-12.133480962936959,-8.671354278785536,-11.588486757637396,-15.786588974278187,0
-21.092121509353593,-15.54017421447699,-14.180934654446384,-16.35107096677144,-14.86930720835974,-13.35749326662734,-11.06377725641945,-9.891567110405369,-11.030096721871503,-5.342535454811076,-19.767640774777963,-34.17643653975027,-19.390533752883435,-8.923055749700133,-13.001458658191321,-10.735861118280345,-6.318734712998715,-10.564948732060271,-13.454059910335445,0
-19.580275547674812,-13.884184803998382,-12.488304756755065,-13.172325215646392,-13.107043753930592,-9.827119420938384,-9.520332461663259,-6.7208124946790395,-8.139137048120965,-2.804481326753908,-17.927188390942195,-31.614252916907226,-18.54030475802533,-6.283174776445047,-10.892999411535294,-9.1433767200276,-3.730566441705274,-9.130186616746421,-10.47199498331827,0
-18.12280168063631,-12.319477204859405,-11.131820767241372,-9.910204392419041,-11.68813628635848,-6.2512165926193095,-8.070650646902468,-3.8528028279962987,-5.382874786618283,-0.45350933693488293,-16.504361577670146,-28.880586691758236,-17.9374355461319,-3.137348180492644,-8.495554907483582,-7.572435326924409,-1.4022292237357952,-7.515554341904395,-7.512288422577351,0
-17.01319030160224,-11.01269515914462,-10.473858267011991,-7.203803697108138,-10.994814816736987,-3.3492940012697385,-7.0414839312322,-1.8810321637271306,-3.360823700003999,1.2703161407597225,-15.814444559364752,-26.565744988878205,-17.69348721617779,-0.17555015546696692,-6.2874270268874115,-6.289456738850686,0.18480924479190167,-6.070037079870141,-5.304101926604779,0
-16.5057026822762,-10.163180312864734,-10.72164464965488,-5.575398522319501,-11.275473210968745,-1.6398092390001093,-6.7105175395647,-1.1342619005478014,-2.491256327482264,2.0860347982693552,-16.001316069429947,-25.237471025185677,-17.856050354487024,1.8712406590452089,-4.7720355189776456,-5.496266886300535,0.7292810619334512,-5.132218500688311,-4.380328658041688,0
-16.67520371997242,-9.886012266484709,-11.806208343311171,-5.219757314611004,-12.512297765141893,-1.2476771872705603,-7.174816966354995,-1.5402801111313271,-2.84029828918077,1.997856855125205,-16.934818307061875,-25.18891944735519,-18.33575868607243,2.5091414271819086,-4.272029492222096,-5.212118031305002,0.24953993761397122,-4.87532172193714,-4.863525552225607,0
-17.340788008632774,-10.12689091831106,-13.357863019649672,-5.909278539798147,-14.381553333714416,-1.855219955759344,-8.283576857268402,-2.6378394054884855,-4.081485216518139,1.314720836453815,-18.206430106932054,-26.282786130698856,-18.89430062483583,1.6770728298039088,-4.79122083832224,-5.22821118959943,-0.8872427517338722,-5.211447921446978,-6.401768852230216,0
-18.061624958841897,-10.622337679074299,-14.765717005714722,-7.0262784257016735,-16.299320843938755,-2.7895457738922866,-9.637719266719321,-3.710032973029519,-5.578817853769835,0.5759774663259386,-19.20354020815763,-27.929996821381316,-19.173408185543686,-0.18685573536027267,-5.969862963568168,-5.139099272707066,-2.0351962379768773,-5.768914235394519,-8.2556386638396,0
-18.28188584420277,-10.990147164736635,-15.374644809527434,-7.7840510541672945,-17.608310592539688,-3.28478659768487,-10.724730818536488,-4.059642772973976,-6.628622501167277,0.34076828638316864,-19.31131315905363,-29.285373832751574,-18.82149779359388,-2.303331033237275,-7.219594453452771,-4.511167455171458,-2.490429513153466,-6.023992292081419,-9.574269218728213,0
