Fp1,Fp2,F7,F3,Fz,F4,F8,T3,C3,Cz,C4,T4,T5,P3,Pz,P4,status
116.99375,41.09375,66.69375,-64.50625,-126.40625,8.39375,22.49375,42.19375,53.29375,4.49375,2.49375,73.79375,129.29375,0.09375,-124.90625,-245.50625,1
115.93125,38.63125,64.73125,-64.66875,-125.26875,8.73125,27.03125,43.23125,57.53125,11.13125,2.33125,72.23125,125.73125,-5.46875,-123.06875,-248.76875,1
115.725,38.325,66.025,-62.675,-135.375,9.025,29.425,47.125,49.925,24.425,1.225,72.925,123.225,-3.075,-129.975,-246.275,1
120.15625,40.75625,71.05625,-59.54375,-148.34375,12.15625,32.25625,49.05625,41.05625,12.75625,1.85625,73.55625,128.65625,-0.14375,-133.24375,-242.04375,1
119.5,39.5,71.3,-59.2,-125.5,14.8,28.5,48.8,42.2,-1.2,1.4,70.3,116.1,3.4,-129.0,-240.9,1
116.7375,35.9375,69.2375,-60.3625,-96.9625,13.5375,31.5375,46.8375,43.5375,5.3375,-0.3625,68.9375,103.8375,-1.6625,-130.5625,-245.5625,1
116.65,32.45,69.45,-60.75,-100.65,10.95,34.75,47.35,40.45,2.95,-1.85,65.05,131.95,-4.95,-131.65,-252.15,1
118.39375,32.79375,67.79375,-56.50625,-115.40625,18.09375,37.19375,53.19375,43.89375,1.89375,-0.80625,63.19375,132.99375,-8.50625,-131.40625,-256.80625,1
118.75,32.15,68.25,-55.85,-117.35,16.15,36.45,54.45,45.55,5.05,-1.15,61.95,132.45,-9.15,-132.15,-255.55,1
117.21875,33.61875,66.91875,-54.98125,-125.68125,16.91875,38.61875,54.01875,46.01875,6.61875,-1.58125,63.11875,124.71875,-3.98125,-130.58125,-250.98125,1
116.75,36.95,68.55,-52.95,-130.05,20.55,42.25,54.75,43.75,6.15,-3.25,65.15,115.85,-4.15,-131.35,-248.95,1
115.04375,34.34375,71.24375,-56.55625,-104.35625,18.64375,25.64375,50.64375,40.34375,4.44375,-6.65625,64.04375,125.14375,0.14375,-134.45625,-247.65625,1
115.7375,32.9375,73.4375,-56.1625,-113.6625,23.7375,21.6375,52.1375,42.8375,6.7375,-5.8625,65.2375,107.5375,9.8375,-134.0625,-242.0625,1
116.1375,30.2375,71.5375,-57.9625,-120.8625,26.3375,28.1375,50.8375,39.7375,1.9375,-8.1625,62.0375,133.1375,8.0375,-137.0625,-244.0625,1
117.1,28.5,71.5,-62.6,-95.8,19.7,32.8,49.4,38.2,0.1,-9.7,60.9,131.1,3.2,-138.6,-245.8,1
120.14375,33.24375,74.04375,-62.35625,-104.35625,14.74375,34.04375,47.94375,39.64375,2.04375,-8.55625,64.24375,132.24375,-6.15625,-137.75625,-243.15625,1
121.53125,31.93125,76.73125,-63.46875,-105.86875,16.13125,36.03125,48.33125,40.83125,0.93125,-8.56875,63.83125,126.23125,-0.06875,-137.26875,-247.26875,1
122.75,33.05,76.25,-63.25,-109.55,17.45,32.65,47.45,41.95,2.75,-7.75,64.75,119.15,7.25,-137.65,-247.25,1
124.03125,37.43125,73.83125,-60.76875,-124.26875,18.93125,32.53125,48.53125,42.13125,1.33125,-6.06875,66.03125,119.23125,9.83125,-137.36875,-245.36875,1
124.7625,38.2625,74.2625,-60.8375,-119.3375,22.7625,29.4625,47.7625,39.9625,1.2625,-5.8375,67.3625,118.0625,4.1625,-139.2375,-242.8375,1
126.84375,40.04375,76.64375,-62.35625,-116.45625,13.14375,27.44375,46.54375,40.84375,4.94375,-3.55625,70.74375,120.24375,-5.55625,-137.55625,-241.95625,1
125.275,42.775,77.575,-60.925,-116.325,15.675,30.975,46.575,38.075,1.775,-4.125,71.375,117.575,-2.325,-139.225,-244.725,1
124.0875,44.8875,76.8875,-61.7125,-127.2125,13.4875,33.0875,43.8875,40.0875,5.7875,-2.4125,74.7875,115.0875,-0.4125,-138.9125,-241.4125,1
120.3125,45.8125,74.6125,-63.4875,-118.3875,10.9125,27.9125,40.8125,39.0125,6.1125,-3.4875,75.6125,116.9125,4.3125,-140.6875,-236.2875,1
118.625,48.825,73.525,-60.475,-117.775,20.425,24.825,44.125,35.825,-12.375,-5.275,73.025,120.225,16.325,-142.775,-237.075,1
117.16875,49.36875,70.86875,-59.73125,-135.73125,22.56875,30.36875,45.46875,38.76875,-4.23125,-4.23125,75.16875,117.66875,11.56875,-140.33125,-234.73125,1
119.0375,47.6375,72.5375,-61.7625,-139.3625,18.9375,32.1375,46.3375,48.6375,11.2375,-0.1625,76.9375,105.0375,-3.2625,-134.3625,-239.5625,1
114.83125,40.33125,64.83125,-68.36875,-119.66875,16.43125,31.43125,43.43125,49.23125,20.53125,-1.56875,75.23125,108.93125,-0.26875,-134.46875,-240.86875,1
117.9,38.5,65.5,-68.6,-113.4,17.6,27.6,44.7,45.9,6.8,-0.2,73.3,122.0,0.5,-134.0,-244.1,1
120.6375,42.8375,68.0375,-66.5625,-121.1625,20.9375,23.1375,46.9375,51.3375,9.2375,3.0375,77.9375,90.8375,4.8375,-134.5625,-237.4625,1
118.56875,43.26875,64.16875,-70.13125,-111.13125,17.76875,25.06875,42.06875,46.16875,10.06875,-0.23125,78.36875,101.76875,6.46875,-141.73125,-230.53125,1
119.125,43.525,64.525,-69.375,-126.575,18.125,29.125,41.825,44.425,3.325,0.025,76.125,122.525,8.025,-139.175,-235.575,1
117.1625,40.1625,63.5625,-69.6375,-116.1375,18.2625,25.4625,41.3625,48.6625,16.3625,-0.6375,75.2625,119.0625,1.7625,-140.6375,-240.0375,1
116.78125,37.78125,65.18125,-68.81875,-113.91875,21.28125,27.98125,44.28125,50.78125,16.98125,-0.81875,73.88125,116.98125,-2.91875,-142.01875,-243.41875,1
116.6,36.7,66.0,-67.8,-118.9,24.5,36.3,46.2,46.5,12.2,-1.8,73.7,114.8,-3.8,-141.5,-239.7,1
116.4625,37.6625,67.5625,-67.3375,-116.2375,19.7625,39.4625,46.3625,46.8625,5.3625,-3.4375,73.7625,112.0625,2.5625,-142.8375,-238.0375,1
114.50625,41.40625,69.00625,-65.09375,-154.89375,22.10625,35.70625,47.50625,57.10625,25.70625,-1.89375,79.70625,93.10625,8.10625,-140.19375,-231.89375,1
104.51875,39.51875,65.01875,-66.98125,-113.68125,22.81875,39.81875,47.71875,50.91875,21.71875,-7.08125,76.61875,95.91875,0.91875,-142.48125,-235.28125,1
97.5125,35.8125,64.5125,-68.8875,-83.0875,24.0125,38.4125,48.0125,43.3125,14.2125,-11.3875,72.2125,115.8125,-4.3875,-149.0875,-236.9875,1
96.5625,33.3625,67.4625,-68.4375,-79.9375,20.3625,34.4625,45.2625,45.7625,8.4625,-10.6375,70.5625,117.2625,-0.1375,-144.6375,-235.7375,1
97.49375,30.79375,70.49375,-68.20625,-85.70625,20.39375,43.59375,46.69375,45.89375,12.39375,-10.70625,69.89375,110.89375,-4.80625,-142.80625,-236.30625,1
101.275,29.775,72.375,-68.425,-96.225,19.975,42.175,47.075,47.075,14.375,-10.625,70.775,108.975,-3.025,-143.225,-232.325,1
107.3875,31.2875,75.1875,-66.9125,-118.2125,21.2875,37.9875,46.4875,49.1875,15.3875,-8.3125,72.0875,104.8875,4.4875,-141.6125,-230.6125,1
110.64375,29.14375,75.34375,-69.35625,-107.25625,18.34375,33.54375,44.04375,49.24375,15.44375,-8.45625,70.64375,106.74375,4.94375,-142.25625,-230.75625,1
116.24375,29.94375,77.34375,-68.85625,-112.15625,16.14375,36.14375,46.34375,49.24375,10.34375,-7.45625,69.34375,98.44375,7.44375,-139.55625,-228.95625,1
117.8125,32.0125,77.1125,-69.0875,-112.6875,12.3125,33.3125,45.7125,45.3125,10.8125,-8.9875,69.1125,108.2125,10.8125,-140.9875,-230.7875,1
118.06875,27.36875,74.26875,-71.43125,-99.53125,13.16875,38.16875,42.06875,44.66875,8.96875,-10.13125,65.96875,111.56875,12.06875,-139.43125,-235.83125,1
118.09375,25.59375,74.19375,-69.40625,-94.00625,20.19375,40.69375,43.59375,44.89375,5.09375,-10.80625,63.99375,111.19375,3.29375,-139.70625,-236.90625,1
122.40625,28.60625,77.60625,-66.69375,-114.49375,13.70625,43.60625,46.20625,45.10625,3.60625,-9.29375,64.90625,116.20625,3.60625,-138.39375,-236.69375,1
123.1625,34.1625,78.1625,-62.5375,-116.3375,19.2625,43.6625,47.5625,45.4625,6.3625,-9.6375,67.9625,85.4625,8.0625,-138.5375,-232.2375,1
120.3,37.6,74.9,-60.2,-117.9,23.1,42.8,49.0,42.7,8.0,-12.9,69.8,87.3,8.4,-145.2,-227.7,1
119.09375,35.79375,71.59375,-61.40625,-128.00625,17.99375,42.19375,47.09375,44.19375,4.89375,-13.30625,66.49375,110.99375,18.49375,-141.90625,-234.20625,1
115.36875,35.06875,69.86875,-61.53125,-95.13125,21.26875,30.76875,43.66875,44.46875,1.86875,-14.63125,65.06875,100.06875,18.06875,-140.73125,-233.53125,1
115.425,38.325,69.325,-58.075,-118.875,25.425,35.225,45.925,45.925,1.225,-13.675,67.325,99.725,18.825,-143.075,-228.975,1
114.65625,40.65625,64.85625,-57.24375,-117.94375,27.85625,33.65625,45.55625,44.75625,1.75625,-13.64375,67.25625,106.15625,20.25625,-145.24375,-233.34375,1
113.14375,43.74375,61.34375,-56.45625,-118.35625,29.94375,32.94375,45.14375,44.64375,-1.65625,-12.85625,69.64375,97.44375,24.74375,-144.15625,-229.25625,1
112.39375,47.99375,62.69375,-54.10625,-134.90625,35.79375,27.29375,46.99375,42.49375,-7.70625,-12.60625,73.99375,90.19375,34.49375,-143.80625,-221.20625,1
107.8875,47.1875,60.6875,-56.1125,-137.6125,38.9875,26.0875,46.2875,43.0875,-2.2125,-14.3125,76.1875,92.6875,35.8875,-145.1125,-219.6125,1
106.0875,46.5875,59.5875,-58.4125,-149.9125,31.0875,35.1875,47.4875,48.5875,11.9875,-11.5125,79.7875,94.3875,25.1875,-142.7125,-223.4125,1
102.8625,48.2625,56.7625,-59.2375,-137.1375,29.6625,29.9625,45.6625,49.5625,25.3625,-11.8375,84.0625,86.4625,18.3625,-147.1375,-221.6375,1
102.0625,53.9625,56.7625,-55.2375,-135.3375,33.2625,29.0625,45.5625,48.1625,7.4625,-11.5375,84.5625,86.6625,25.8625,-146.2375,-225.0375,1
98.74375,47.14375,57.34375,-59.75625,-127.25625,31.24375,34.04375,47.14375,48.94375,8.04375,-13.05625,82.04375,94.94375,20.14375,-144.35625,-225.35625,1
96.4,45.6,56.5,-59.4,-131.5,30.1,32.7,49.5,53.6,17.2,-12.6,83.2,93.0,14.9,-142.1,-227.1,1
95.4,50.0,58.4,-54.9,-133.1,32.5,33.0,50.8,54.9,23.7,-12.4,85.8,68.3,20.8,-143.2,-230.0,1
94.55625,50.75625,57.15625,-53.44375,-134.44375,33.95625,31.15625,50.25625,52.05625,18.15625,-14.84375,84.95625,80.05625,24.85625,-145.94375,-229.24375,1
96.73125,50.83125,57.33125,-52.76875,-136.06875,34.83125,31.33125,50.93125,47.53125,12.03125,-16.06875,83.93125,87.93125,23.03125,-145.76875,-225.76875,1
94.9875,51.1875,56.7875,-52.5125,-141.5125,36.6875,34.3875,50.0875,46.4875,10.8875,-18.7125,82.3875,98.5875,20.9875,-148.1125,-222.6125,1
92.94375,52.54375,58.64375,-52.95625,-127.15625,30.34375,33.94375,46.54375,47.14375,13.64375,-21.45625,81.64375,92.24375,23.04375,-149.55625,-221.55625,1
92.4875,55.2875,62.5875,-50.9125,-134.3125,33.4875,33.1875,48.0875,47.3875,9.9875,-23.2125,80.6875,82.1875,31.0875,-146.3125,-221.7125,1
93.6875,56.9875,64.6875,-48.1125,-146.1125,38.1875,39.9875,51.7875,40.5875,-2.3125,-25.0125,78.5875,96.4875,31.7875,-149.8125,-221.4125,1
91.64375,53.24375,60.84375,-51.15625,-120.25625,37.24375,51.04375,47.64375,39.14375,-2.65625,-28.95625,74.64375,97.94375,29.04375,-154.25625,-225.15625,1
91.5625,50.6625,63.5625,-52.2375,-112.6375,37.2625,37.9625,44.6625,41.6625,9.1625,-29.8375,74.3625,93.1625,31.7625,-153.7375,-227.3375,1
94.33125,49.23125,67.53125,-49.86875,-116.86875,39.83125,34.73125,46.03125,41.63125,6.43125,-28.66875,74.23125,86.03125,35.73125,-153.16875,-227.16875,1
97.34375,48.94375,71.54375,-47.95625,-113.55625,42.24375,42.44375,47.94375,40.34375,-7.35625,-27.45625,71.84375,69.74375,40.94375,-150.35625,-226.65625,1
97.0375,45.6375,69.3375,-51.7625,-123.1625,38.2375,39.0375,45.1375,40.0375,1.0375,-28.2625,72.2375,87.4375,41.2375,-153.0625,-220.1625,1
101.43125,44.23125,72.33125,-53.46875,-135.76875,35.43125,41.63125,45.43125,44.43125,8.63125,-23.36875,74.13125,90.83125,31.03125,-151.76875,-225.16875,1
105.0375,44.2375,76.1375,-53.7625,-138.2625,36.9375,43.9375,43.6375,41.4375,-0.3625,-21.5625,72.6375,103.0375,30.8375,-150.9625,-232.9625,1
104.4125,43.5125,76.1125,-55.4875,-93.8875,34.8125,37.4125,41.5125,36.8125,-10.2875,-22.1875,69.4125,95.1125,32.5125,-153.3875,-236.3875,1
108.80625,44.10625,79.70625,-55.69375,-100.59375,28.10625,40.80625,42.20625,39.00625,-7.19375,-17.79375,69.40625,85.00625,31.00625,-149.99375,-236.89375,1
111.14375,43.14375,79.24375,-55.65625,-88.85625,29.54375,48.34375,42.14375,40.34375,-2.95625,-15.05625,68.14375,64.04375,25.34375,-149.75625,-239.15625,1
109.4875,40.2875,77.2875,-58.9125,-89.5125,24.0875,53.4875,38.4875,36.6875,0.9875,-15.6125,64.8875,99.9875,14.2875,-153.7125,-242.2125,1
113.0125,38.7125,78.9125,-59.5875,-89.8875,22.1125,50.3125,40.0125,35.1125,-8.9875,-13.1875,63.2125,104.2125,23.5125,-152.2875,-245.1875,1
116.95,37.55,79.15,-59.05,-100.15,28.25,47.95,40.95,37.55,-10.45,-9.05,63.55,102.75,19.25,-149.65,-245.55,1
120.41875,38.21875,80.31875,-59.78125,-111.28125,21.71875,53.71875,41.61875,38.01875,-10.48125,-5.78125,64.01875,104.81875,16.11875,-148.08125,-243.58125,1
118.4875,39.4875,77.8875,-60.2125,-116.4125,24.7875,56.5875,43.1875,37.6875,-10.5125,-4.5125,64.5875,101.8875,19.4875,-147.9125,-244.5125,1
119.125,42.425,77.025,-62.475,-115.275,18.325,54.925,39.425,38.925,-6.175,-0.575,69.525,92.025,19.325,-146.275,-240.275,1
116.66875,43.96875,74.66875,-64.33125,-99.93125,18.46875,41.16875,36.96875,39.06875,1.66875,-0.33125,73.06875,96.46875,8.56875,-148.63125,-237.53125,1
114.725,42.825,71.625,-67.075,-102.675,18.525,39.725,35.725,45.625,1.025,0.725,71.125,102.625,14.125,-142.875,-245.775,1
116.38125,43.98125,72.28125,-67.91875,-116.41875,15.88125,39.38125,35.48125,53.68125,0.38125,3.18125,71.08125,104.58125,12.48125,-137.81875,-246.61875,1
118.99375,43.69375,74.09375,-66.90625,-114.00625,14.79375,38.89375,37.09375,47.39375,3.29375,3.49375,71.39375,100.99375,10.99375,-140.50625,-243.70625,1
119.55,43.45,70.35,-66.25,-116.25,12.25,39.95,35.85,42.75,11.25,2.25,72.35,101.85,12.65,-144.45,-237.55,1
119.5125,40.9125,67.7125,-66.5875,-93.9875,12.7125,44.8125,35.5125,42.7125,7.7125,1.9125,70.3125,87.0125,13.6125,-144.2875,-239.5875,1
120.89375,38.39375,68.99375,-65.70625,-118.90625,17.79375,50.99375,39.39375,46.39375,3.09375,3.89375,69.59375,87.29375,19.49375,-138.70625,-242.90625,1
117.35,38.35,66.95,-64.25,-115.85,18.35,42.45,37.65,44.55,2.05,0.45,68.25,107.15,19.75,-142.05,-241.15,1
113.75,41.15,64.55,-60.95,-104.05,23.05,42.95,39.25,41.45,-1.45,-2.65,66.85,103.95,18.15,-145.85,-240.15,1
110.175,44.175,62.475,-57.325,-110.225,26.975,43.475,40.875,38.875,-2.725,-5.725,66.375,100.475,25.975,-148.325,-235.525,1
105.425,45.325,61.825,-55.175,-113.175,27.225,42.725,42.325,40.425,6.425,-9.075,68.525,89.625,24.725,-147.975,-229.175,1
100.8,45.6,59.3,-54.6,-121.7,27.1,47.4,42.3,42.8,19.1,-12.4,70.1,94.6,17.8,-149.8,-228.4,1
99.88125,42.68125,59.08125,-54.71875,-120.81875,29.78125,54.48125,43.98125,40.38125,12.48125,-15.11875,69.18125,94.68125,27.18125,-152.51875,-230.61875,1
103.2125,44.2125,61.5125,-51.6875,-129.5875,33.4125,37.7125,46.3125,40.8125,9.1125,-13.3875,72.0125,92.3125,31.8125,-149.9875,-227.7875,1
104.275,41.775,59.875,-53.025,-122.925,35.975,36.675,45.175,38.475,6.975,-15.325,71.675,99.075,29.975,-153.125,-225.525,1
104.84375,39.94375,56.94375,-53.15625,-129.15625,40.64375,42.74375,46.44375,37.84375,12.64375,-16.55625,73.74375,95.34375,25.04375,-155.75625,-221.55625,1
107.3375,40.8375,56.3375,-54.5625,-128.7625,34.0375,43.8375,43.3375,38.4375,12.5375,-15.8625,77.4375,90.0375,27.9375,-155.1625,-217.7625,1
112.725,43.325,60.425,-55.175,-127.375,26.325,45.425,43.125,38.725,13.625,-14.675,78.725,77.625,35.025,-154.175,-223.675,1
116.0,45.1,63.5,-53.6,-118.3,26.8,47.2,44.1,37.7,6.2,-14.4,77.6,72.4,31.2,-154.1,-227.4,1
114.7625,44.9625,62.6625,-55.1375,-116.6375,26.9625,47.9625,40.0625,33.8625,4.7625,-17.7375,74.2625,104.5625,21.9625,-156.9375,-230.3375,1
114.025,47.225,64.225,-54.675,-107.675,30.425,43.325,41.325,32.325,8.325,-19.475,73.725,101.325,14.225,-160.275,-228.375,1
115.85625,49.35625,67.45625,-54.84375,-125.14375,22.75625,45.15625,44.15625,36.65625,8.35625,-16.94375,76.45625,98.55625,14.05625,-156.64375,-225.24375,1
116.74375,46.14375,71.94375,-56.55625,-123.55625,21.84375,51.24375,44.54375,37.14375,5.84375,-16.25625,74.44375,103.64375,11.84375,-155.45625,-233.55625,1
116.6875,42.3875,75.0875,-57.9125,-120.8125,23.2875,52.4875,43.8875,39.0875,6.5875,-14.3125,73.3875,97.7875,11.1875,-153.5125,-235.3125,1
117.00625,40.20625,75.00625,-58.59375,-93.69375,24.70625,52.00625,45.60625,37.30625,5.10625,-13.49375,72.10625,76.50625,12.00625,-156.29375,-235.49375,1
118.59375,39.79375,75.79375,-58.70625,-125.00625,25.89375,50.09375,45.99375,38.69375,3.99375,-10.70625,72.69375,91.39375,19.59375,-153.90625,-234.20625,1
114.95625,38.15625,69.75625,-62.24375,-139.84375,22.45625,54.55625,42.15625,37.55625,10.25625,-10.14375,75.25625,114.85625,14.15625,-154.44375,-227.44375,1
115.475,35.975,70.375,-64.025,-122.225,19.575,59.775,41.175,39.375,6.075,-7.725,74.775,111.075,4.575,-151.325,-232.925,1
113.7375,31.5375,72.5375,-68.1625,-72.2625,18.9375,45.4375,38.8375,38.8375,-3.1625,-8.3625,69.9375,105.8375,8.4375,-151.2625,-240.8625,1
113.05,30.35,72.55,-68.95,-62.05,19.25,44.05,36.95,34.95,0.95,-8.05,69.75,107.15,8.45,-154.85,-243.55,1
116.21875,35.01875,72.91875,-67.08125,-81.58125,17.01875,54.11875,36.51875,36.11875,-2.68125,-5.38125,70.61875,110.61875,6.41875,-152.68125,-246.18125,1
118.05,40.25,72.75,-64.95,-100.75,18.75,51.55,37.15,38.45,-2.05,-3.05,72.75,112.65,4.35,-149.75,-246.15,1
118.1375,43.1375,75.8375,-63.2625,-104.5625,22.3375,51.1375,37.7375,34.4375,0.3375,-3.7625,73.0375,109.4375,3.9375,-150.9625,-246.9625,1
118.525,40.925,78.425,-63.375,-111.075,16.725,53.125,38.725,36.825,-1.875,-2.075,71.725,111.625,5.725,-146.175,-247.775,1
116.89375,36.69375,75.69375,-61.50625,-102.80625,23.09375,55.79375,41.69375,38.79375,-1.20625,-2.90625,68.09375,107.09375,0.09375,-146.90625,-248.60625,1
117.76875,33.76875,74.46875,-60.13125,-105.63125,19.86875,58.46875,41.26875,38.16875,2.76875,-2.33125,65.76875,111.96875,0.56875,-147.73125,-249.03125,1
114.9625,26.6625,72.5625,-62.6375,-93.0375,25.5625,56.4625,37.9625,37.4625,2.6625,-4.6375,61.3625,115.0625,6.5625,-146.9375,-250.0375,1
114.35625,28.45625,74.05625,-58.34375,-103.54375,31.55625,58.35625,42.85625,39.35625,-2.44375,-2.14375,61.55625,92.75625,10.95625,-141.44375,-246.34375,1
114.3,28.2,75.1,-56.8,-126.4,31.3,61.8,48.4,41.9,-5.8,0.6,59.9,111.3,4.3,-136.8,-251.3,1
112.14375,27.34375,69.64375,-57.65625,-124.05625,34.34375,61.94375,46.44375,43.64375,-6.35625,0.54375,56.54375,123.54375,3.44375,-136.55625,-254.95625,1
110.625,29.425,64.725,-58.075,-90.975,32.725,48.725,42.525,42.325,-5.875,-1.375,55.725,115.925,5.725,-140.975,-251.175,1
111.4,34.8,61.2,-57.1,-105.3,25.6,47.8,43.1,43.2,1.4,-0.7,60.4,111.7,8.0,-141.5,-244.0,1
112.875,34.575,59.275,-58.025,-121.925,28.575,45.575,41.975,43.875,5.175,-1.025,62.075,116.275,19.375,-140.225,-248.425,1
110.7375,36.2375,56.5375,-57.3625,-112.2625,28.9375,36.4375,42.1375,40.2375,2.3375,-4.0625,63.7375,114.7375,24.8375,-141.4625,-241.7625,1
109.55625,39.95625,56.35625,-56.84375,-113.44375,28.55625,37.75625,41.65625,36.05625,0.45625,-7.54375,67.15625,110.05625,24.45625,-146.04375,-228.14375,1
113.325,43.925,60.625,-51.475,-130.075,35.925,46.525,47.025,39.225,-8.375,-5.875,65.825,95.325,30.725,-142.775,-239.875,1
109.8375,44.8375,58.8375,-52.3625,-123.6625,33.3375,42.0375,44.3375,36.4375,-2.8625,-9.9625,64.9375,108.5375,39.1375,-148.4625,-244.9625,1
108.6375,46.5375,60.1375,-49.8625,-117.7625,32.3375,41.1375,46.2375,32.0375,-3.7625,-13.2625,66.5375,111.4375,33.3375,-152.7625,-240.9625,1
109.225,45.825,63.225,-46.175,-135.675,35.825,48.925,49.525,31.925,-5.675,-14.375,67.025,109.625,30.925,-152.175,-237.975,1
109.03125,44.63125,67.33125,-43.26875,-139.76875,36.83125,55.73125,50.83125,34.33125,-4.16875,-15.46875,67.53125,88.13125,38.73125,-152.26875,-238.16875,1
108.66875,46.16875,69.46875,-40.63125,-141.13125,41.06875,54.46875,52.46875,29.96875,-0.63125,-17.73125,69.16875,79.56875,40.86875,-157.23125,-234.53125,1
105.39375,46.89375,66.99375,-39.80625,-100.30625,45.79375,37.09375,51.49375,22.89375,-9.00625,-24.00625,65.69375,92.69375,38.29375,-163.20625,-236.90625,1
102.60625,50.00625,65.70625,-40.59375,-92.39375,34.70625,35.70625,49.10625,23.10625,-12.99375,-24.49375,66.00625,103.60625,37.60625,-160.69375,-236.99375,1
103.33125,47.73125,66.03125,-45.56875,-107.26875,35.33125,46.73125,49.53125,25.73125,-9.96875,-24.66875,65.23125,111.83125,35.13125,-159.06875,-240.06875,1
105.8875,50.3875,70.2875,-45.4125,-108.3125,36.9875,56.8875,51.6875,24.8875,-12.0125,-24.9125,66.3875,88.8875,37.4875,-159.7125,-239.4125,1
109.275,56.975,78.175,-43.325,-119.325,37.475,59.775,52.675,20.575,-14.925,-25.225,69.575,74.975,39.775,-162.625,-233.825,1
104.74375,50.14375,72.84375,-51.25625,-96.55625,34.14375,58.34375,48.34375,16.04375,-15.95625,-30.55625,67.14375,115.34375,30.04375,-168.55625,-234.25625,1
103.8,50.3,71.3,-52.7,-106.2,35.2,58.5,50.2,21.3,-8.8,-28.9,70.6,105.6,33.0,-166.3,-236.9,1
101.9875,50.2875,75.3875,-52.2125,-102.5125,35.5875,54.2875,48.7875,20.3875,-6.4125,-29.3125,70.9875,106.2875,32.8875,-166.4125,-240.0125,1
99.75625,49.05625,74.35625,-54.54375,-68.74375,26.65625,55.45625,45.65625,18.65625,-7.64375,-30.14375,69.65625,103.75625,26.15625,-168.34375,-239.74375,1
102.85,50.05,74.85,-53.25,-84.05,28.65,67.55,48.05,20.65,-17.25,-26.55,69.45,94.95,28.95,-163.65,-241.25,1
105.79375,51.39375,78.99375,-52.10625,-104.70625,28.79375,59.39375,49.39375,24.39375,-9.30625,-22.50625,73.59375,77.49375,31.89375,-160.20625,-232.30625,1
105.33125,47.83125,78.33125,-55.86875,-89.26875,24.33125,52.93125,47.13125,23.03125,-14.46875,-21.56875,72.63125,93.23125,27.43125,-160.26875,-230.76875,1
107.28125,40.58125,81.58125,-60.31875,-72.61875,19.58125,52.18125,42.58125,22.68125,-12.81875,-20.51875,69.18125,108.28125,23.98125,-160.11875,-241.51875,1
112.51875,41.41875,82.61875,-56.58125,-122.28125,24.31875,52.91875,47.61875,29.31875,-8.88125,-14.08125,71.81875,106.61875,27.11875,-152.98125,-241.48125,1
111.225,38.725,81.725,-59.575,-96.375,24.225,55.925,46.125,26.025,-12.275,-16.975,69.325,99.325,28.125,-154.875,-240.675,1
111.9375,39.0375,82.2375,-59.9625,-98.7625,26.6375,55.5375,46.7375,27.3375,-6.4625,-17.2625,69.3375,93.4375,25.8375,-155.4625,-240.1625,1
109.09375,38.69375,77.39375,-61.20625,-79.60625,28.89375,54.49375,45.39375,25.59375,-8.70625,-19.50625,67.09375,96.49375,25.59375,-156.90625,-242.80625,1
112.975,45.675,81.975,-55.425,-101.525,32.775,57.375,46.775,23.775,-14.825,-17.425,68.575,88.775,28.175,-154.625,-243.025,1
108.96875,40.96875,76.76875,-60.13125,-64.23125,23.16875,57.66875,42.46875,20.76875,-15.83125,-20.13125,63.16875,111.36875,19.46875,-156.33125,-248.13125,1
107.775,36.675,73.575,-62.525,-62.325,25.575,59.575,42.375,24.275,-11.725,-19.025,62.775,97.275,28.675,-155.325,-247.625,1
110.34375,37.04375,71.64375,-63.65625,-92.65625,26.24375,58.14375,42.74375,28.04375,-6.95625,-14.45625,65.24375,101.24375,31.64375,-151.95625,-242.65625,1
112.9625,36.9625,68.6625,-65.2375,-110.5375,22.9625,57.0625,42.0625,31.7625,-6.2375,-10.0375,66.4625,113.7625,27.5625,-146.9375,-241.2375,1
112.44375,34.24375,66.24375,-68.35625,-88.35625,18.34375,56.64375,39.24375,34.74375,-4.05625,-8.95625,64.24375,110.64375,22.64375,-143.55625,-246.15625,1
114.01875,31.61875,69.41875,-68.68125,-76.98125,19.71875,45.21875,38.51875,35.91875,-5.78125,-7.88125,61.51875,109.51875,21.51875,-140.08125,-247.58125,1
115.14375,33.94375,71.74375,-64.05625,-82.95625,23.04375,49.64375,43.64375,34.94375,-9.15625,-6.55625,60.94375,93.14375,23.54375,-140.65625,-246.35625,1
113.8375,32.8375,68.9375,-64.3625,-90.2625,23.8375,49.6375,43.1375,37.3375,-9.1625,-6.4625,58.4375,111.0375,19.7375,-139.8625,-248.6625,1
115.0875,32.1875,67.8875,-65.5125,-97.0125,21.8875,52.6875,41.1875,38.8875,-6.2125,-5.8125,57.6875,113.3875,18.9875,-139.3125,-246.0125,1
114.54375,33.64375,69.14375,-63.65625,-101.55625,22.24375,56.34375,42.44375,37.94375,-7.45625,-7.65625,56.54375,107.54375,23.24375,-139.05625,-244.25625,1
113.9625,34.2625,69.3625,-63.4375,-105.2375,19.0625,51.9625,44.3625,40.6625,-5.2375,-8.3375,58.1625,108.4625,24.6625,-137.2375,-245.4375,1
113.7875,34.8875,68.0875,-62.5125,-109.7125,22.9875,49.2875,46.6875,41.8875,-4.0125,-9.4125,59.0875,108.0875,22.7875,-137.1125,-244.8125,1
114.83125,37.03125,69.03125,-60.16875,-108.16875,25.63125,51.53125,47.63125,35.73125,-4.16875,-11.66875,60.23125,105.33125,24.73125,-143.36875,-244.16875,1
116.06875,39.76875,69.36875,-59.03125,-109.03125,26.36875,51.56875,46.96875,36.86875,-3.83125,-11.83125,62.16875,101.86875,20.16875,-142.23125,-245.23125,1
116.05,42.85,68.55,-57.45,-116.45,27.95,51.65,46.15,35.15,-7.75,-13.55,64.05,98.45,28.15,-141.95,-241.85,1
114.89375,39.19375,68.59375,-58.50625,-125.10625,30.89375,50.49375,46.89375,36.09375,-5.40625,-15.20625,64.49375,105.89375,29.89375,-142.60625,-240.50625,1
112.5375,38.3375,65.9375,-56.6625,-110.9625,36.2375,48.8375,49.0375,35.4375,-9.1625,-17.8625,61.4375,106.6375,29.4375,-143.6625,-245.5625,1
110.19375,41.39375,62.49375,-57.00625,-101.10625,32.59375,46.29375,48.09375,30.89375,-4.40625,-20.70625,62.89375,104.89375,31.39375,-148.80625,-239.10625,1
108.25,45.75,60.75,-56.05,-102.95,29.85,47.65,46.05,30.55,0.45,-21.95,65.15,98.65,35.55,-150.35,-237.35,1
108.46875,49.36875,59.26875,-53.93125,-113.23125,32.56875,46.06875,48.06875,30.36875,-0.03125,-21.83125,67.16875,99.96875,34.76875,-149.03125,-238.03125,1
109.875,54.775,60.475,-48.325,-154.825,41.875,58.875,52.475,28.275,-13.825,-21.025,68.975,104.275,41.675,-147.325,-236.225,1
109.58125,54.18125,60.68125,-48.51875,-134.01875,38.48125,52.08125,53.18125,30.88125,-5.11875,-20.41875,71.88125,83.58125,35.58125,-147.91875,-234.11875,1
109.3625,55.2625,60.8625,-49.7375,-128.9375,28.9625,39.9625,49.8625,35.0625,10.6625,-18.7375,76.3625,75.3625,32.7625,-147.9375,-229.1375,1
108.875,51.275,57.675,-52.925,-116.425,32.175,45.575,48.675,28.475,-3.425,-21.525,72.275,108.375,26.175,-150.725,-234.525,1
108.95625,52.25625,56.95625,-50.84375,-97.94375,35.05625,51.45625,52.35625,21.95625,-13.74375,-23.44375,71.95625,99.45625,29.15625,-155.54375,-238.04375,1
108.33125,52.53125,58.03125,-50.26875,-109.76875,34.03125,51.03125,53.83125,24.73125,-6.96875,-21.66875,73.93125,95.93125,28.83125,-155.66875,-236.86875,1
106.7375,52.7375,57.8375,-50.2625,-122.5625,34.3375,50.1375,53.6375,27.4375,4.1375,-19.5625,76.3375,92.9375,24.6375,-155.5625,-232.9625,1
107.4625,56.4625,59.2625,-47.2375,-141.0375,38.0625,51.7625,55.6625,26.4625,-2.3375,-17.2375,78.6625,91.7625,26.4625,-153.7375,-230.4375,1
105.175,52.575,55.875,-49.725,-124.025,39.175,47.875,52.775,25.175,-5.225,-19.125,76.975,92.275,36.775,-155.525,-231.025,1
107.11875,51.51875,58.91875,-50.78125,-106.48125,31.31875,52.31875,51.81875,24.91875,-9.28125,-19.18125,74.51875,90.41875,35.51875,-155.98125,-236.68125,1
109.39375,52.99375,62.49375,-49.70625,-124.40625,32.89375,55.49375,52.59375,25.89375,-7.10625,-17.90625,75.59375,90.09375,31.79375,-155.30625,-234.80625,1
108.55,51.95,63.95,-50.55,-128.95,36.05,51.45,54.55,28.25,0.25,-17.85,77.05,87.55,20.85,-154.95,-228.15,1
111.53125,52.93125,66.33125,-48.56875,-142.36875,33.93125,60.23125,55.13125,27.03125,8.93125,-14.76875,79.73125,67.63125,22.83125,-155.86875,-224.66875,1
113.1375,50.4375,69.3375,-50.3625,-113.2625,26.7375,54.3375,55.1375,21.3375,-9.6625,-15.0625,75.2375,82.7375,32.3375,-158.5625,-233.8625,1
110.50625,47.10625,66.40625,-52.09375,-100.29375,30.10625,56.60625,52.20625,17.70625,-14.79375,-17.29375,72.70625,98.10625,29.60625,-161.39375,-235.19375,1
107.20625,47.40625,65.30625,-51.79375,-110.89375,30.20625,61.10625,50.30625,18.30625,-11.79375,-18.09375,72.80625,98.50625,33.80625,-161.09375,-231.29375,1
107.91875,48.21875,66.91875,-50.38125,-118.48125,27.71875,61.11875,52.91875,21.21875,-7.98125,-15.98125,72.51875,95.01875,32.11875,-160.08125,-232.78125,1
109.73125,47.83125,68.43125,-49.86875,-128.96875,30.33125,61.23125,54.53125,23.53125,-6.26875,-13.56875,71.03125,98.33125,25.63125,-157.96875,-233.96875,1
109.25,48.35,71.15,-50.35,-119.45,28.25,62.85,52.05,22.55,-6.85,-14.45,69.05,94.85,25.75,-158.35,-234.65,1
108.79375,43.79375,68.09375,-51.60625,-103.90625,30.09375,59.79375,50.79375,23.69375,-5.10625,-14.40625,65.99375,95.39375,25.79375,-157.00625,-240.20625,1
111.04375,43.74375,70.04375,-50.25625,-114.05625,27.84375,59.24375,52.34375,25.14375,-4.65625,-13.75625,65.74375,97.44375,22.34375,-155.45625,-236.75625,1
113.05625,43.95625,75.15625,-48.84375,-109.04375,32.75625,62.15625,55.45625,24.85625,-6.44375,-14.84375,64.45625,72.25625,23.55625,-154.14375,-234.34375,1
116.6125,45.4125,81.0125,-46.3875,-134.4875,40.2125,67.5125,59.0125,25.5125,-7.6875,-15.8875,62.9125,70.6125,24.8125,-153.2875,-235.8875,1
114.09375,41.59375,79.49375,-47.40625,-112.10625,42.39375,65.39375,57.09375,19.09375,-16.70625,-21.10625,55.19375,114.89375,14.19375,-158.00625,-248.10625,1
111.8,41.6,79.3,-46.0,-81.5,39.0,59.5,56.9,14.4,-23.8,-24.1,51.0,108.2,23.9,-160.0,-250.2,1
109.425,41.625,80.225,-45.475,-80.575,36.225,68.625,58.025,10.125,-30.675,-26.975,47.725,109.625,30.825,-159.475,-249.275,1
107.48125,46.28125,82.68125,-39.31875,-102.21875,40.48125,72.08125,59.78125,12.58125,-26.81875,-26.61875,49.38125,96.58125,31.38125,-156.61875,-247.11875,1
107.23125,47.13125,83.03125,-39.36875,-107.16875,41.03125,66.03125,59.83125,15.43125,-16.76875,-26.26875,51.33125,95.73125,29.33125,-157.76875,-248.76875,1
109.71875,42.81875,84.71875,-43.88125,-84.58125,37.31875,67.51875,58.71875,17.81875,-21.98125,-25.08125,48.41875,104.81875,17.01875,-154.98125,-258.38125,1
111.46875,43.36875,84.86875,-44.73125,-86.03125,35.06875,71.76875,56.76875,17.86875,-20.53125,-26.03125,47.46875,103.46875,19.66875,-153.83125,-260.63125,1
114.45,44.85,86.05,-43.35,-88.95,35.55,79.65,57.25,17.75,-22.45,-26.05,48.45,85.85,21.35,-151.55,-258.85,1
115.6625,44.4625,90.2625,-42.4375,-96.3375,39.5625,72.7625,57.6625,15.3625,-23.4375,-27.5375,49.0625,95.4625,16.5625,-153.0375,-254.0375,1
116.09375,42.39375,91.89375,-43.20625,-84.70625,35.69375,68.19375,58.59375,12.99375,-21.30625,-29.30625,47.99375,94.59375,19.09375,-156.40625,-252.60625,1
116.65,39.65,90.35,-42.85,-81.05,37.75,72.35,59.65,11.45,-21.45,-31.05,45.75,106.85,14.85,-157.85,-261.05,1
120.14375,40.44375,91.74375,-42.85625,-93.95625,32.74375,77.04375,60.24375,12.84375,-19.65625,-29.95625,47.64375,109.74375,9.54375,-156.05625,-259.65625,1
123.10625,41.10625,93.20625,-43.69375,-110.39375,36.00625,74.40625,58.20625,12.30625,-18.89375,-29.79375,51.10625,102.50625,21.50625,-156.39375,-254.29375,1
121.4625,41.5625,89.7625,-48.4375,-95.8375,30.3625,67.8625,52.6625,14.9625,-17.0375,-29.1375,55.4625,96.3625,23.6625,-155.1375,-248.5375,1
117.98125,44.28125,84.18125,-50.61875,-87.91875,29.28125,64.38125,49.48125,14.88125,-13.01875,-29.11875,59.68125,96.18125,22.08125,-158.31875,-243.41875,1
117.61875,46.91875,83.01875,-50.78125,-111.08125,30.21875,62.91875,47.91875,17.01875,-9.28125,-27.48125,62.71875,94.41875,36.41875,-157.48125,-243.08125,1
116.85,53.45,86.35,-46.35,-132.15,35.15,58.25,51.05,18.95,-6.15,-24.45,69.95,72.75,37.95,-155.45,-236.15,1
108.36875,51.66875,81.56875,-48.53125,-105.83125,32.86875,60.16875,49.16875,11.76875,-9.93125,-30.83125,67.86875,99.86875,34.86875,-166.23125,-236.83125,1
106.8375,49.7375,78.8375,-47.5625,-94.7625,32.8375,73.6375,51.4375,10.5375,-11.4625,-32.5625,66.6375,86.8375,34.4375,-168.9625,-236.4625,1
108.56875,49.06875,78.46875,-46.93125,-114.93125,33.56875,62.36875,52.56875,14.66875,-0.03125,-29.93125,67.56875,89.76875,37.36875,-168.63125,-233.53125,1
111.075,46.175,74.975,-49.225,-83.025,32.275,60.775,53.375,12.575,-12.125,-29.125,63.175,91.275,32.175,-166.825,-237.525,1
117.7125,48.1125,77.8125,-49.5875,-100.2875,34.5125,64.2125,51.5125,13.8125,-17.5875,-24.4875,64.1125,84.3125,33.2125,-163.1875,-234.1875,1
118.0,46.9,72.1,-53.7,-104.2,32.5,65.2,46.9,15.2,-7.3,-23.0,64.7,90.9,31.9,-163.8,-232.3,1
118.3375,46.9375,70.8375,-54.9625,-92.7625,32.6375,60.3375,45.5375,15.6375,-8.5625,-21.3625,64.2375,91.9375,30.1375,-162.7625,-236.1625,1
122.36875,46.76875,74.16875,-55.83125,-102.73125,31.66875,56.56875,44.76875,19.46875,-11.43125,-17.53125,64.66875,92.76875,28.86875,-158.63125,-235.93125,1
119.39375,45.19375,64.59375,-59.00625,-113.10625,28.19375,62.49375,42.69375,22.59375,2.99375,-16.10625,66.89375,100.19375,24.59375,-158.70625,-232.90625,1
118.2,43.8,62.9,-61.2,-90.6,24.7,54.3,40.2,20.0,-3.7,-15.0,67.2,101.3,24.2,-157.0,-229.3,1
118.91875,42.11875,66.01875,-60.98125,-76.48125,28.01875,54.81875,44.21875,17.41875,-16.58125,-13.78125,65.31875,97.81875,25.41875,-154.08125,-238.18125,1
119.35625,41.25625,72.15625,-59.04375,-79.44375,31.45625,57.25625,47.35625,19.85625,-16.94375,-12.84375,66.05625,77.35625,29.15625,-151.14375,-241.84375,1
118.58125,39.68125,73.18125,-57.31875,-108.61875,24.68125,51.08125,47.18125,21.68125,-12.61875,-11.91875,66.28125,109.88125,26.98125,-148.51875,-240.21875,1
116.89375,37.49375,71.19375,-59.00625,-102.80625,32.89375,52.89375,44.69375,20.69375,-12.80625,-13.30625,64.99375,117.19375,20.49375,-151.30625,-240.20625,1
122.95625,42.05625,82.85625,-58.04375,-151.54375,27.55625,53.85625,44.85625,24.55625,-10.24375,-9.24375,68.35625,118.05625,27.15625,-145.34375,-237.84375,1
117.81875,38.41875,79.71875,-61.88125,-135.58125,25.51875,61.61875,40.91875,22.41875,-8.78125,-13.08125,66.51875,118.51875,35.51875,-148.18125,-239.48125,1
105.16875,31.16875,67.46875,-68.53125,-37.63125,21.66875,66.96875,37.16875,19.26875,-7.53125,-20.63125,62.06875,106.36875,15.66875,-154.53125,-244.13125,1
104.95625,33.75625,67.85625,-66.44375,-44.04375,23.45625,72.55625,39.55625,21.15625,-14.64375,-19.84375,61.95625,101.05625,14.95625,-151.74375,-244.54375,1
105.28125,38.88125,68.28125,-62.81875,-90.21875,24.58125,81.18125,42.08125,27.28125,-12.61875,-16.21875,64.68125,93.08125,24.98125,-144.81875,-243.61875,1
103.825,36.125,68.125,-65.275,-66.475,22.925,76.325,40.425,28.925,-9.475,-15.775,63.125,94.825,13.625,-143.575,-247.675,1
105.1,36.5,73.4,-64.3,-86.7,26.5,55.0,39.8,26.5,-9.7,-14.1,64.3,121.8,14.1,-142.6,-245.6,1
101.88125,35.38125,70.98125,-64.41875,-87.11875,21.48125,62.38125,39.18125,23.28125,-11.21875,-14.41875,63.48125,128.98125,17.58125,-142.51875,-244.91875,1
99.2625,33.2625,69.4625,-62.8375,-68.5375,22.9625,66.2625,40.5625,21.9625,-17.9375,-15.1375,60.3625,121.5625,18.9625,-141.2375,-248.9375,1
101.09375,34.19375,70.49375,-58.90625,-86.20625,25.09375,67.19375,43.19375,22.49375,-18.70625,-13.00625,60.89375,124.59375,17.89375,-141.60625,-248.70625,1
102.14375,34.74375,68.54375,-59.05625,-89.25625,24.44375,64.14375,41.84375,21.94375,-8.95625,-12.95625,60.84375,125.84375,18.24375,-144.55625,-247.95625,1
105.73125,38.43125,68.73125,-56.96875,-90.96875,28.23125,63.73125,43.13125,21.93125,-16.86875,-11.26875,59.83125,120.53125,21.53125,-142.16875,-253.56875,1
107.95,43.15,68.15,-55.75,-83.15,26.15,63.35,42.65,23.55,-16.35,-10.45,61.25,117.95,4.55,-141.85,-251.15,1
111.24375,44.54375,65.44375,-53.85625,-98.75625,30.94375,56.34375,42.94375,24.44375,-15.55625,-10.15625,60.54375,120.04375,14.34375,-140.85625,-251.65625,1
115.55625,40.65625,63.85625,-55.54375,-108.24375,33.15625,56.75625,42.85625,28.45625,-17.64375,-8.14375,58.85625,123.55625,17.95625,-137.54375,-254.54375,1
122.53125,43.03125,65.43125,-53.66875,-135.26875,34.33125,59.33125,43.63125,30.23125,-13.36875,-5.96875,60.83125,118.33125,17.83125,-135.36875,-251.86875,1
125.91875,43.21875,69.01875,-52.38125,-139.88125,33.61875,56.41875,43.01875,34.51875,-8.88125,-5.28125,62.61875,98.81875,20.51875,-133.38125,-247.88125,1
118.8,38.4,62.8,-57.0,-85.2,23.4,56.6,40.7,25.5,-11.6,-13.4,58.2,119.3,19.5,-143.6,-252.4,1
114.06875,38.36875,57.06875,-57.63125,-81.53125,23.86875,57.66875,38.36875,26.16875,-4.53125,-16.63125,58.46875,121.26875,19.76875,-145.03125,-249.73125,1
115.88125,39.58125,62.08125,-55.21875,-86.41875,23.58125,46.58125,39.88125,29.58125,-9.11875,-14.71875,58.78125,125.48125,12.08125,-141.01875,-247.01875,1
114.41875,43.51875,61.51875,-51.58125,-106.08125,23.41875,51.01875,42.41875,29.01875,-19.68125,-14.48125,60.51875,125.01875,21.11875,-140.38125,-239.78125,1
111.7625,42.6625,59.8625,-52.2375,-106.3375,24.5625,59.9625,42.0625,27.9625,-5.6375,-16.4375,63.1625,113.0625,20.1625,-143.8375,-240.7375,1
113.71875,42.11875,66.21875,-51.48125,-104.08125,27.41875,60.01875,44.41875,26.51875,-11.78125,-16.98125,61.61875,117.11875,16.51875,-143.88125,-247.48125,1
114.41875,43.51875,64.71875,-48.98125,-105.78125,29.91875,65.41875,48.41875,23.51875,-18.38125,-18.08125,61.01875,115.41875,21.41875,-145.68125,-250.88125,1
115.575,44.875,65.275,-47.625,-102.625,30.675,70.675,49.075,19.875,-18.725,-19.825,61.175,113.775,17.575,-149.025,-250.725,1
117.01875,46.01875,66.41875,-48.48125,-91.08125,29.11875,72.81875,46.81875,17.91875,-19.68125,-21.28125,61.01875,114.61875,10.21875,-151.88125,-249.58125,1
120.74375,49.84375,70.44375,-47.35625,-112.85625,28.64375,72.94375,46.74375,17.84375,-18.25625,-19.75625,63.44375,111.64375,12.94375,-152.65625,-244.35625,1
122.1625,48.0625,72.8625,-47.5375,-113.2375,32.6625,74.1625,48.6625,18.4625,-13.2375,-19.6375,65.8625,87.4625,17.1625,-153.7375,-240.1375,1
124.01875,44.61875,76.11875,-46.58125,-121.18125,37.61875,79.11875,48.71875,18.91875,-18.18125,-18.58125,63.91875,84.31875,28.21875,-152.88125,-248.18125,1
122.23125,41.83125,76.13125,-49.16875,-114.46875,35.93125,65.83125,48.23125,13.93125,-19.56875,-21.56875,62.23125,118.03125,28.33125,-160.76875,-247.16875,1
121.03125,41.33125,77.13125,-50.36875,-85.26875,30.23125,66.33125,49.13125,10.43125,-20.96875,-23.66875,62.83125,108.93125,24.83125,-166.66875,-245.26875,1
123.4875,41.3875,78.5875,-50.0125,-86.1125,25.3875,72.3875,49.3875,8.6875,-20.9125,-23.0125,63.0875,111.2875,21.7875,-167.4125,-248.0125,1
125.275,39.875,82.175,-49.625,-92.825,30.575,76.575,49.175,9.275,-21.225,-23.025,61.575,105.875,21.875,-165.625,-249.925,1
126.36875,43.36875,84.96875,-46.83125,-111.23125,32.76875,76.46875,50.56875,10.46875,-16.93125,-22.53125,62.16875,101.46875,24.56875,-165.93125,-249.73125,1
123.725,45.925,85.625,-46.075,-100.075,33.725,76.625,48.925,10.625,-15.775,-23.475,61.425,93.525,26.525,-168.075,-253.175,1
126.7125,45.7125,89.8125,-47.1875,-69.7875,29.5125,77.4125,50.0125,10.4125,-23.0875,-21.3875,60.9125,76.8125,13.5125,-166.4875,-252.8875,1
127.275,45.075,87.275,-50.025,-78.725,24.975,81.875,48.975,14.075,-16.325,-20.225,60.875,88.575,6.075,-165.825,-253.925,1
126.3125,43.5125,85.8125,-52.9875,-97.0875,21.5125,83.1125,46.1125,15.4125,-10.6875,-20.9875,61.3125,114.3125,2.3125,-166.0875,-251.8875,1
126.55,41.25,86.05,-53.35,-103.15,21.65,79.95,46.15,17.75,-6.75,-20.05,62.35,106.25,6.25,-162.65,-248.25,1
125.19375,36.79375,87.79375,-55.30625,-89.90625,19.69375,79.09375,45.19375,17.39375,-8.40625,-20.50625,60.19375,105.09375,10.89375,-163.30625,-249.90625,1
125.08125,35.58125,89.48125,-56.11875,-97.71875,23.58125,77.58125,43.68125,17.88125,-5.41875,-19.61875,61.18125,108.38125,10.88125,-165.71875,-248.71875,1
124.25,36.55,87.35,-55.75,-102.85,26.55,74.75,43.05,19.35,-6.95,-17.35,62.65,103.55,15.35,-162.95,-247.55,1
124.85625,39.05625,85.85625,-56.34375,-92.74375,19.15625,73.75625,43.35625,18.35625,-14.84375,-15.74375,62.75625,105.95625,16.85625,-162.04375,-248.24375,1
124.3625,40.6625,86.0625,-56.3375,-92.9375,13.2625,79.2625,43.2625,22.3625,-11.2375,-14.5375,62.8625,104.0625,4.2625,-159.1375,-246.2375,1
120.69375,37.69375,83.49375,-57.70625,-90.70625,21.19375,75.49375,42.99375,24.99375,6.99375,-15.20625,62.39375,76.29375,10.89375,-160.00625,-239.50625,1
119.33125,38.33125,83.53125,-55.26875,-110.46875,26.23125,75.03125,44.33125,24.13125,2.33125,-13.66875,61.53125,83.53125,16.63125,-157.56875,-237.96875,1
117.075,38.875,86.175,-53.925,-115.725,22.675,74.075,45.675,22.975,-15.525,-13.625,58.075,118.275,16.775,-155.625,-246.225,1
113.5375,37.8375,83.9375,-52.7625,-117.3625,26.1375,78.0375,47.6375,27.7375,-10.1625,-14.8625,56.6375,119.9375,11.7375,-154.2625,-253.7625,1
107.34375,34.74375,80.34375,-53.45625,-81.75625,30.54375,76.44375,48.84375,23.34375,-9.95625,-21.15625,52.94375,111.74375,13.84375,-158.45625,-255.35625,1
106.41875,34.61875,80.21875,-53.08125,-74.48125,26.81875,79.61875,50.51875,19.01875,-8.98125,-24.28125,51.51875,108.51875,17.31875,-161.88125,-251.88125,1
110.24375,35.04375,81.64375,-51.35625,-88.45625,29.64375,82.64375,52.04375,23.34375,-10.15625,-23.25625,50.94375,97.94375,18.54375,-157.85625,-250.95625,1
115.61875,35.41875,83.11875,-49.18125,-117.18125,37.41875,84.61875,53.11875,22.21875,-11.28125,-22.28125,50.41875,103.91875,20.21875,-156.98125,-249.18125,1
112.91875,30.81875,78.11875,-52.68125,-83.28125,36.51875,83.51875,50.71875,18.21875,-10.58125,-26.68125,46.61875,115.91875,14.81875,-160.98125,-253.98125,1
112.4,30.8,78.3,-50.6,-78.9,37.0,84.3,54.1,16.2,-12.4,-28.9,47.3,112.6,15.7,-164.1,-253.8,1
110.86875,32.86875,78.06875,-50.03125,-74.33125,38.56875,86.26875,54.36875,14.56875,-12.63125,-29.73125,49.76875,92.96875,22.36875,-164.03125,-249.93125,1
109.4125,35.4125,77.4125,-48.8875,-125.1875,39.0125,89.2125,55.7125,19.2125,-7.8875,-27.2875,53.7125,110.9125,25.1125,-159.2875,-246.5875,1
105.8625,33.4625,75.6625,-51.9375,-104.7375,31.3625,84.7625,52.9625,20.7625,-7.5375,-27.3375,53.2625,118.7625,26.4625,-157.8375,-253.9375,1
102.15,34.35,70.65,-53.75,-84.55,30.15,82.55,50.05,23.45,-5.05,-27.75,55.75,108.65,25.55,-156.75,-255.45,1
99.89375,36.39375,66.39375,-53.10625,-95.30625,31.29375,92.79375,50.89375,24.59375,-4.00625,-28.50625,57.99375,108.29375,23.49375,-157.20625,-253.90625,1
99.38125,40.08125,68.88125,-51.41875,-94.71875,31.08125,83.58125,51.18125,17.88125,-1.51875,-29.51875,61.78125,109.08125,22.58125,-161.21875,-247.11875,1
101.75,39.45,71.65,-49.55,-90.25,35.55,85.55,53.85,16.25,-12.65,-29.25,62.05,94.75,32.75,-161.45,-250.45,1
108.54375,40.34375,74.14375,-49.05625,-97.55625,36.54375,79.84375,54.34375,17.24375,-10.35625,-27.15625,65.14375,92.24375,26.04375,-159.95625,-250.35625,1
112.9375,41.2375,74.9375,-49.2625,-115.4625,36.6375,71.8375,52.0375,19.7375,-5.1625,-26.2625,68.7375,94.2375,29.5375,-158.2625,-247.4625,1
110.15625,40.75625,66.75625,-51.44375,-105.94375,31.75625,76.55625,50.55625,20.45625,-5.64375,-27.74375,68.85625,103.45625,27.15625,-158.24375,-247.44375,1
108.68125,40.38125,62.98125,-51.91875,-93.61875,34.98125,84.98125,50.98125,16.88125,-12.01875,-30.01875,66.98125,106.68125,22.58125,-159.91875,-248.61875,1
109.425,43.225,65.925,-54.275,-94.775,22.325,89.525,48.525,16.925,-10.375,-29.475,69.525,100.325,27.625,-159.975,-244.475,1
110.30625,46.20625,68.40625,-53.59375,-111.69375,25.30625,90.00625,49.50625,14.90625,-9.59375,-29.19375,71.70625,104.90625,26.50625,-161.39375,-242.29375,1
111.0875,51.8875,67.5875,-50.8125,-147.0125,29.5875,88.1875,51.7875,15.7875,-11.0125,-27.6125,75.4875,107.1875,33.4875,-160.3125,-235.3125,1
106.74375,52.04375,62.34375,-51.65625,-107.85625,22.14375,85.74375,48.14375,14.34375,-10.35625,-30.95625,73.94375,93.84375,38.34375,-162.65625,-234.15625,1
107.7875,53.3875,65.4875,-48.6125,-95.6125,23.9875,76.3875,47.9875,19.0875,-4.1125,-29.5125,73.9875,77.1875,33.0875,-160.0125,-240.5125,1
106.825,50.425,65.825,-50.375,-103.075,28.125,72.325,47.825,21.525,3.125,-28.975,74.025,87.725,25.925,-159.475,-241.775,1
107.33125,50.33125,65.43125,-51.06875,-113.16875,30.23125,76.13125,49.03125,21.23125,-6.36875,-28.06875,74.23125,94.83125,26.63125,-157.46875,-239.26875,1
105.15625,48.65625,63.05625,-51.64375,-102.44375,29.55625,77.05625,48.85625,22.05625,-3.24375,-27.64375,72.55625,89.35625,27.25625,-157.14375,-241.44375,1
99.98125,46.28125,58.38125,-54.91875,-105.71875,26.78125,81.68125,46.08125,21.78125,3.48125,-28.71875,70.38125,104.38125,29.08125,-157.51875,-241.41875,1
98.88125,46.28125,60.98125,-54.51875,-103.21875,26.88125,81.88125,45.78125,22.28125,-2.81875,-28.21875,68.38125,107.78125,25.88125,-154.31875,-241.91875,1
100.34375,44.14375,65.64375,-52.45625,-104.75625,30.24375,80.34375,52.24375,23.74375,-9.25625,-26.65625,67.04375,101.94375,25.64375,-154.65625,-243.55625,1
100.23125,40.03125,63.93125,-51.26875,-108.76875,36.83125,86.33125,52.83125,21.13125,-6.66875,-27.86875,64.53125,95.73125,34.23125,-157.56875,-243.66875,1
102.66875,35.06875,62.36875,-54.83125,-102.13125,29.66875,90.56875,50.56875,20.66875,1.86875,-28.63125,62.46875,98.46875,33.76875,-158.73125,-243.83125,1
110.875,32.575,66.975,-54.925,-102.625,25.575,95.875,53.675,20.575,-7.725,-25.425,59.875,105.975,20.575,-153.425,-248.425,1
116.70625,36.30625,72.40625,-50.09375,-123.09375,29.00625,95.30625,58.40625,24.20625,-12.49375,-20.39375,60.60625,88.90625,22.60625,-147.19375,-251.19375,1
114.91875,36.51875,73.81875,-49.88125,-131.28125,31.61875,88.31875,58.91875,24.11875,-7.08125,-21.48125,58.71875,96.61875,26.71875,-149.68125,-250.88125,1
111.2875,34.3875,67.8875,-51.7125,-112.5125,33.3875,85.2875,58.5875,19.2875,-10.4125,-23.8125,55.4875,108.3875,25.3875,-151.7125,-249.2125,1
109.10625,32.00625,64.10625,-53.69375,-84.29375,33.80625,97.10625,59.00625,19.50625,-19.09375,-24.69375,51.80625,107.00625,13.70625,-151.89375,-253.49375,1
106.8,32.4,67.1,-53.0,-91.4,33.3,101.4,58.1,19.4,-10.9,-26.7,51.7,106.9,15.1,-155.8,-254.4,1
103.65,32.25,70.05,-52.15,-81.25,36.35,93.25,58.45,19.25,-14.65,-29.95,47.95,114.25,19.55,-156.05,-260.95,1
103.6125,35.1125,70.7125,-50.2875,-88.6875,32.8125,99.5125,63.1125,16.0125,-13.4875,-31.4875,47.4125,110.4125,24.5125,-159.3875,-259.8875,1
105.75625,36.95625,74.15625,-45.24375,-91.44375,36.45625,109.45625,68.15625,11.45625,-24.84375,-32.94375,44.45625,108.85625,22.25625,-159.64375,-263.84375,1
106.13125,36.03125,74.93125,-44.26875,-90.26875,35.13125,109.23125,67.13125,17.43125,-21.56875,-33.06875,41.93125,108.43125,16.83125,-154.06875,-269.96875,1
108.9,35.4,77.7,-46.1,-98.1,34.0,103.1,64.7,28.2,-16.0,-29.8,44.9,91.5,12.9,-148.4,-262.9,1
110.93125,38.23125,83.43125,-43.46875,-91.36875,39.33125,100.93125,66.13125,11.93125,-25.96875,-32.66875,46.03125,97.63125,22.33125,-161.06875,-262.36875,1
109.3,37.0,80.1,-43.9,-107.5,41.9,116.4,69.6,7.7,-18.7,-34.6,46.3,107.4,21.8,-165.6,-267.2,1
107.86875,37.76875,75.66875,-45.03125,-94.83125,42.16875,109.46875,66.36875,14.76875,-19.53125,-34.13125,45.96875,105.56875,19.76875,-161.03125,-270.83125,1
106.5125,41.5125,73.7125,-44.0875,-91.2875,42.3125,102.1125,63.4125,9.3125,-20.6875,-36.5875,47.1125,110.8125,34.5125,-167.3875,-271.2875,1
105.76875,45.76875,74.16875,-43.63125,-91.83125,36.26875,107.16875,62.56875,6.36875,-18.93125,-37.43125,51.66875,103.96875,33.66875,-170.73125,-264.83125,1
105.05,48.55,76.15,-42.35,-96.55,40.05,104.85,62.85,1.65,-22.35,-38.55,55.35,102.05,35.25,-172.05,-259.95,1
104.29375,49.59375,76.89375,-41.60625,-97.00625,43.19375,102.99375,62.99375,1.09375,-19.20625,-39.00625,59.19375,94.99375,27.89375,-171.90625,-254.40625,1
104.3,50.9,78.0,-41.6,-98.9,40.6,102.8,62.8,-0.3,-21.5,-39.5,61.0,97.4,29.6,-174.1,-251.5,1
107.5125,53.8125,79.4125,-40.5875,-124.0875,38.6125,104.4125,64.7125,3.5125,-19.0875,-36.3875,64.9125,84.5125,36.5125,-170.7875,-246.9875,1
112.9375,55.2375,81.5375,-38.3625,-134.7625,43.3375,98.0375,66.5375,5.9375,-16.9625,-32.8625,68.6375,64.2375,35.7375,-166.6625,-242.5625,1
109.16875,52.66875,77.36875,-41.43125,-120.63125,39.76875,94.66875,62.16875,1.06875,-21.13125,-36.33125,64.76875,99.06875,34.26875,-170.13125,-245.33125,1
98.99375,48.59375,68.79375,-45.40625,-72.20625,40.59375,98.19375,58.39375,-0.90625,-21.40625,-42.80625,60.49375,99.99375,29.79375,-174.60625,-246.50625,1
99.25625,48.95625,69.75625,-48.04375,-18.64375,26.25625,77.75625,52.05625,0.65625,-17.34375,-43.54375,61.55625,77.35625,32.25625,-175.34375,-242.94375,1
104.125,54.625,72.325,-42.775,-112.675,28.625,87.325,57.625,6.725,-20.975,-37.975,66.925,107.525,35.825,-168.175,-239.075,1
101.15,54.75,66.05,-43.25,-110.55,30.15,99.05,57.35,6.45,-13.95,-40.95,68.15,98.05,33.85,-171.95,-234.35,1
99.93125,55.03125,65.83125,-43.66875,-79.26875,30.33125,99.73125,57.83125,5.53125,-18.66875,-43.16875,67.13125,92.93125,21.73125,-172.36875,-238.86875,1
100.23125,52.23125,68.23125,-43.66875,-96.26875,35.23125,96.53125,58.23125,6.33125,-16.06875,-43.86875,67.13125,91.73125,34.23125,-172.26875,-237.96875,1
100.9125,49.9125,69.7125,-44.1875,-94.9875,35.9125,90.6125,57.9125,6.9125,-12.2875,-44.4875,66.1125,93.9125,32.6125,-172.5875,-235.9875,1
102.05625,49.45625,70.95625,-43.84375,-92.54375,37.95625,92.85625,58.55625,4.35625,-14.74375,-46.44375,64.25625,94.35625,32.95625,-174.34375,-235.84375,1
103.15625,48.35625,72.95625,-44.14375,-97.74375,41.65625,95.35625,58.45625,4.85625,-8.04375,-46.94375,65.65625,92.45625,21.35625,-174.34375,-233.04375,1
103.7625,46.0625,74.3625,-44.7375,-90.5375,38.7625,100.4625,58.8625,1.7625,-11.4375,-48.5375,64.0625,92.7625,24.1625,-173.5375,-236.2375,1
104.54375,44.74375,75.14375,-45.85625,-94.45625,37.14375,104.54375,59.84375,-0.95625,-16.45625,-49.15625,62.24375,98.04375,31.84375,-171.55625,-239.65625,1
104.7375,42.6375,74.8375,-47.5625,-78.5625,37.2375,102.7375,60.4375,-1.2625,-19.2625,-49.6625,60.1375,103.7375,29.2375,-175.1625,-244.2625,1
107.69375,41.69375,76.49375,-48.10625,-85.40625,38.09375,103.09375,59.69375,-0.30625,-22.20625,-46.80625,58.89375,105.59375,27.99375,-173.50625,-242.90625,1
110.19375,38.79375,79.49375,-49.90625,-78.60625,36.89375,109.59375,60.99375,0.09375,-22.90625,-45.60625,55.19375,102.99375,21.99375,-172.40625,-246.80625,1
112.075,37.275,84.675,-49.625,-69.425,36.975,98.775,59.675,-1.425,-22.325,-45.325,52.475,105.875,23.375,-172.025,-251.025,1
117.00625,37.20625,89.60625,-47.99375,-81.09375,40.90625,105.40625,62.60625,-3.99375,-34.39375,-43.39375,50.10625,102.00625,27.50625,-171.29375,-250.19375,1
119.675,32.575,93.175,-52.525,-64.625,29.775,107.675,59.875,1.175,-28.525,-40.825,46.575,93.175,24.675,-167.725,-254.125,1
120.33125,29.13125,92.73125,-54.26875,-61.46875,27.23125,109.93125,58.13125,5.83125,-21.66875,-38.56875,41.43125,112.53125,11.73125,-166.16875,-266.86875,1
123.29375,27.19375,94.19375,-56.90625,-60.20625,26.59375,108.39375,56.79375,8.99375,-23.40625,-35.20625,39.49375,112.19375,8.09375,-161.00625,-268.50625,1
127.75625,33.15625,100.15625,-51.14375,-77.54375,29.95625,108.95625,59.05625,1.45625,-31.04375,-33.64375,38.05625,122.85625,5.95625,-162.84375,-271.14375,1
126.11875,29.21875,96.31875,-50.48125,-74.18125,33.91875,116.91875,59.61875,3.41875,-30.08125,-33.68125,32.61875,122.61875,9.21875,-161.98125,-279.58125,1
122.6875,25.9875,91.7875,-50.5125,-60.6125,36.0875,112.1875,58.9875,7.6875,-19.1125,-33.7125,30.4875,115.5875,3.8875,-160.1125,-281.3125,1
121.15625,25.35625,89.95625,-51.44375,-64.34375,30.75625,107.55625,60.15625,11.45625,-18.54375,-32.74375,30.75625,113.15625,8.85625,-156.24375,-275.84375,1
119.8,25.7,88.6,-51.1,-76.8,32.4,109.0,60.8,16.5,-18.6,-31.5,31.5,105.2,14.4,-151.9,-274.0,1
120.75,29.95,92.35,-47.65,-98.65,37.35,120.75,65.25,12.85,-26.75,-30.95,35.05,96.25,18.55,-156.25,-268.85,1
114.1625,28.1625,84.7625,-50.0375,-99.0375,39.4625,111.0625,63.8625,7.2625,-18.6375,-34.8375,36.8625,129.1625,15.4625,-163.2375,-264.4375,1
109.20625,30.50625,77.50625,-50.89375,-72.29375,34.90625,103.30625,60.40625,7.90625,-15.09375,-36.19375,41.40625,113.50625,19.50625,-164.79375,-258.89375,1
107.43125,35.23125,73.73125,-49.06875,-83.26875,40.73125,101.73125,60.53125,13.33125,-23.26875,-35.56875,45.03125,108.23125,20.23125,-160.96875,-254.06875,1
105.1125,39.1125,69.3125,-46.3875,-103.1875,51.6125,107.0125,63.4125,10.1125,-18.0875,-37.5875,48.2125,100.5125,25.7125,-163.7875,-251.0875,1
103.5875,45.3875,69.5875,-42.3125,-97.7125,50.4875,99.1875,65.4875,2.3875,-13.9125,-40.5125,53.5875,92.4875,31.6875,-171.6125,-247.8125,1
99.86875,48.66875,67.26875,-40.83125,-110.73125,51.76875,91.76875,64.56875,5.06875,-13.53125,-41.53125,58.16875,98.46875,37.36875,-170.03125,-246.33125,1
96.025,49.625,62.225,-41.375,-104.975,51.425,95.325,63.625,5.225,-15.775,-43.375,61.225,94.025,40.425,-170.975,-242.675,1
93.4625,49.9625,58.1625,-43.3375,-100.9375,49.8625,92.2625,59.1625,5.6625,-12.9375,-44.3375,64.3625,96.0625,43.1625,-173.0375,-237.5375,1
93.50625,51.10625,54.50625,-44.69375,-103.59375,48.10625,90.90625,57.90625,8.90625,-9.69375,-42.99375,67.70625,89.60625,42.40625,-172.09375,-231.59375,1
91.9375,54.3375,51.6375,-42.3625,-104.0625,49.9375,87.8375,60.6375,11.7375,-8.3625,-41.5625,71.8375,73.6375,42.6375,-171.2625,-228.5625,1
92.03125,58.03125,55.23125,-38.56875,-102.76875,53.23125,87.43125,64.03125,10.63125,-6.36875,-41.16875,75.33125,40.73125,48.83125,-171.66875,-224.96875,1
95.51875,60.81875,59.01875,-36.48125,-147.58125,53.01875,90.41875,65.31875,5.81875,-11.38125,-40.38125,76.21875,77.71875,47.11875,-172.78125,-222.38125,1
89.8125,59.7125,51.9125,-40.0875,-125.3875,48.3125,98.1125,61.5125,2.7125,-14.9875,-43.9875,73.3125,95.5125,47.3125,-178.6875,-225.0875,1
86.075,55.275,47.775,-44.825,-85.525,44.175,87.875,56.975,5.675,-11.825,-44.525,72.275,82.575,50.775,-177.925,-224.825,1
88.875,55.375,49.375,-45.925,-96.225,40.475,90.175,54.775,9.975,-7.825,-40.825,73.675,83.775,40.375,-172.025,-224.025,1
90.55,54.65,52.65,-45.95,-107.55,41.85,94.05,54.15,11.15,-5.95,-39.75,73.55,84.35,36.55,-171.75,-222.55,1
90.69375,51.29375,55.89375,-47.40625,-111.90625,41.59375,95.69375,54.39375,12.89375,-0.50625,-40.40625,71.69375,85.39375,38.49375,-172.50625,-225.30625,1
94.225,46.525,63.525,-49.175,-109.975,37.525,95.425,55.225,14.825,-0.675,-39.375,69.125,86.425,34.125,-169.775,-227.975,1
98.06875,45.76875,71.06875,-47.63125,-103.43125,39.56875,94.16875,56.56875,14.56875,-6.33125,-38.23125,67.66875,70.76875,33.56875,-167.93125,-228.23125,1
99.19375,45.09375,72.39375,-47.70625,-97.80625,42.89375,99.09375,56.69375,10.99375,-9.40625,-39.60625,64.59375,75.39375,29.79375,-169.50625,-232.10625,1
98.325,43.525,72.025,-51.475,-90.575,34.125,103.225,51.625,7.625,-12.275,-41.875,60.425,103.025,28.825,-171.075,-235.475,1
100.95625,41.35625,78.35625,-53.24375,-86.24375,31.65625,105.65625,53.85625,8.65625,-14.24375,-41.54375,56.85625,95.85625,31.15625,-169.24375,-239.84375,1
105.21875,36.51875,86.11875,-56.78125,-86.68125,25.71875,110.01875,54.31875,8.71875,-13.88125,-40.98125,52.11875,107.41875,23.11875,-168.38125,-242.58125,1
109.61875,34.11875,86.71875,-57.18125,-83.48125,27.31875,106.21875,53.61875,7.71875,-19.08125,-40.38125,47.81875,119.71875,18.91875,-166.28125,-245.38125,1
111.525,31.125,87.125,-55.975,-68.175,30.325,108.725,54.325,8.225,-20.775,-40.375,44.225,114.825,6.325,-163.575,-247.875,1
113.3,27.5,93.7,-55.3,-87.6,24.1,114.9,56.1,9.2,-13.0,-40.3,41.1,113.3,17.2,-162.5,-251.7,1
111.49375,23.99375,96.79375,-54.10625,-82.60625,25.39375,119.99375,58.59375,8.79375,-17.90625,-42.20625,35.59375,120.19375,12.39375,-162.30625,-254.10625,1
115.075,23.775,106.275,-49.325,-53.225,30.475,124.175,64.875,5.475,-31.025,-43.225,29.775,98.775,5.075,-161.325,-265.625,1
116.60625,26.20625,113.30625,-44.99375,-68.99375,36.20625,111.80625,66.20625,5.00625,-29.29375,-43.39375,27.50625,121.00625,-3.39375,-161.69375,-272.09375,1
118.25625,29.95625,113.05625,-42.44375,-104.04375,36.25625,115.05625,68.75625,8.55625,-24.64375,-41.44375,28.25625,120.45625,3.25625,-156.84375,-272.44375,1
112.4125,24.7125,104.8125,-47.7875,-74.8875,31.9125,112.4125,65.7125,6.3125,-23.1875,-45.9875,23.7125,138.6125,7.9125,-161.4875,-275.1875,1
107.7625,22.7625,97.2625,-51.4375,-30.0375,28.9625,118.4625,61.3625,1.6625,-24.6375,-50.2375,20.4625,130.9625,8.2625,-166.7375,-274.8375,1
112.83125,26.13125,98.93125,-49.56875,-33.16875,30.53125,124.73125,64.53125,4.03125,-40.56875,-46.06875,20.23125,120.33125,5.53125,-161.16875,-277.26875,1
115.675,29.775,97.275,-46.825,-40.825,40.575,122.075,66.375,9.475,-37.225,-41.125,23.675,84.475,12.975,-157.625,-278.725,1
116.34375,28.94375,92.34375,-47.85625,-64.85625,40.34375,116.44375,63.04375,1.64375,-31.05625,-42.35625,24.64375,136.44375,9.34375,-163.35625,-280.05625,1
119.23125,30.23125,92.93125,-44.46875,-72.56875,44.93125,116.03125,65.73125,-0.46875,-40.16875,-41.36875,25.13125,134.43125,13.43125,-161.86875,-281.16875,1
117.65625,30.45625,91.85625,-42.24375,-73.44375,48.85625,119.95625,66.35625,2.05625,-40.64375,-42.24375,25.65625,127.65625,12.95625,-161.64375,-283.24375,1
115.8875,33.9875,90.4875,-40.5125,-84.4125,44.4875,126.7875,65.1875,0.3875,-36.4125,-43.7125,29.8875,124.3875,16.3875,-164.5125,-278.3125,1
113.78125,38.48125,92.98125,-37.21875,-80.91875,51.58125,108.88125,65.88125,-2.81875,-38.01875,-45.71875,34.18125,120.28125,19.48125,-165.41875,-275.41875,1
110.41875,42.91875,91.91875,-36.78125,-72.28125,48.31875,106.01875,66.81875,-5.58125,-40.38125,-47.38125,38.21875,115.91875,23.01875,-167.68125,-273.48125,1
106.59375,47.29375,85.69375,-36.20625,-68.90625,48.29375,107.59375,66.09375,-7.80625,-43.70625,-48.30625,41.99375,110.69375,28.29375,-168.40625,-269.20625,1
104.325,48.925,85.225,-35.675,-64.075,51.825,98.425,64.125,-8.075,-40.575,-49.075,45.025,103.525,33.425,-170.175,-267.175,1
105.26875,49.06875,83.56875,-37.13125,-87.13125,48.26875,98.76875,64.16875,-4.63125,-35.83125,-46.43125,49.56875,108.86875,32.46875,-168.03125,-260.83125,1
105.25,52.25,75.15,-36.45,-92.95,42.85,111.45,63.75,0.35,-28.55,-45.05,54.85,89.85,19.95,-165.35,-247.35,1
103.8,45.8,69.7,-41.7,-87.8,41.1,107.1,57.6,-1.0,-25.7,-47.4,52.0,116.3,31.8,-167.7,-253.9,1
104.3375,42.6375,69.7375,-42.6625,-84.6625,42.6375,104.5375,56.6375,5.0375,-26.9625,-45.7625,53.0375,115.6375,29.2375,-165.1625,-258.2625,1
102.39375,44.89375,68.29375,-41.40625,-94.10625,43.09375,101.79375,56.29375,6.69375,-21.80625,-45.30625,56.29375,108.09375,29.69375,-164.40625,-250.50625,1
97.75,46.85,66.75,-39.95,-102.45,47.95,101.55,56.25,8.15,-19.15,-45.95,57.95,99.55,34.45,-164.55,-245.15,1
93.39375,48.99375,67.49375,-39.10625,-98.70625,43.89375,108.09375,57.29375,7.29375,-17.00625,-48.00625,58.49375,87.99375,37.19375,-166.30625,-241.00625,1
91.75,51.45,67.75,-36.45,-106.25,44.35,106.35,60.05,9.25,-25.25,-48.55,58.95,96.45,37.15,-166.35,-240.65,1
92.06875,51.86875,72.76875,-35.03125,-101.43125,45.76875,95.26875,60.86875,14.46875,-12.23125,-47.03125,62.16875,72.96875,33.06875,-163.83125,-241.73125,1
89.15625,46.75625,68.85625,-37.64375,-107.94375,45.65625,97.95625,62.35625,9.05625,-13.34375,-50.54375,59.55625,113.25625,30.15625,-168.34375,-244.94375,1
91.25625,46.75625,70.35625,-37.14375,-112.64375,48.15625,98.45625,65.25625,6.25625,-17.04375,-51.54375,59.35625,106.75625,38.15625,-170.84375,-241.54375,1
89.39375,44.79375,66.19375,-40.50625,-78.40625,45.89375,106.19375,62.29375,0.99375,-22.40625,-54.10625,56.69375,100.19375,42.99375,-177.10625,-243.10625,1
89.6125,46.4125,63.7125,-40.9875,-90.4875,48.7125,110.0125,62.1125,1.7125,-19.3875,-51.7875,58.0125,97.1125,41.7125,-176.1875,-240.2875,1
92.325,45.625,65.725,-42.975,-95.675,42.125,110.325,62.125,2.825,-19.075,-48.975,58.625,99.625,34.125,-173.275,-233.475,1
92.39375,42.39375,65.39375,-45.20625,-100.70625,42.39375,109.29375,61.19375,7.19375,-7.10625,-47.00625,59.79375,88.89375,34.19375,-172.00625,-231.10625,1
94.675,43.875,66.575,-41.925,-130.125,48.575,111.675,65.375,13.275,-9.925,-42.125,59.675,85.975,40.375,-166.625,-239.325,1
95.38125,43.28125,65.18125,-42.11875,-116.51875,48.88125,108.68125,63.58125,13.68125,-11.41875,-40.71875,58.28125,83.68125,33.98125,-164.21875,-239.61875,1
95.775,41.875,71.975,-43.425,-102.025,47.875,97.275,61.475,12.275,-9.925,-43.125,56.775,85.475,33.075,-168.025,-237.325,1
99.25625,44.85625,76.75625,-40.24375,-157.24375,51.05625,112.85625,67.95625,9.95625,-17.04375,-43.84375,54.85625,112.55625,33.95625,-167.64375,-238.04375,1
91.35625,39.55625,72.25625,-43.74375,-91.14375,53.25625,120.75625,64.85625,2.85625,-22.14375,-52.94375,47.45625,100.55625,35.85625,-175.24375,-243.54375,1
88.1875,36.1875,74.4875,-43.6125,-52.3125,53.6875,121.9875,64.6875,-2.0125,-25.5125,-59.2125,41.4875,95.0875,35.0875,-180.5125,-247.7125,1
94.4375,37.4375,82.6375,-41.9625,-77.5625,45.4375,123.5375,66.3375,1.1375,-19.4625,-56.6625,41.5375,105.4375,26.0375,-180.3625,-247.9625,1
100.60625,36.00625,89.40625,-40.69375,-80.69375,45.60625,127.80625,68.80625,-1.49375,-26.59375,-54.89375,37.40625,95.40625,35.50625,-178.69375,-253.49375,1
104.56875,34.46875,91.46875,-38.83125,-72.53125,49.96875,132.66875,71.06875,-5.33125,-33.33125,-55.23125,33.06875,88.56875,34.86875,-178.83125,-256.63125,1
105.9875,31.2875,93.4875,-39.9125,-65.7125,48.4875,128.2875,69.8875,-6.1125,-33.1125,-55.6125,29.2875,97.9875,32.3875,-177.6125,-259.0125,1
109.06875,30.16875,96.16875,-40.23125,-91.03125,50.46875,120.06875,68.06875,-2.63125,-25.53125,-52.43125,30.66875,105.16875,29.06875,-173.83125,-253.23125,1
112.03125,30.63125,93.73125,-40.86875,-92.86875,47.53125,128.83125,68.13125,1.23125,-33.36875,-49.56875,28.73125,108.43125,22.03125,-170.26875,-254.36875,1
113.1875,29.5875,87.5875,-42.8125,-84.1125,43.0875,141.9875,68.2875,2.4875,-27.6125,-48.2125,27.9875,98.8875,17.6875,-168.4125,-259.6125,1
116.69375,28.89375,88.59375,-44.50625,-82.90625,37.29375,127.89375,66.79375,0.89375,-20.00625,-47.60625,29.49375,114.59375,10.89375,-170.90625,-256.10625,1
118.05625,27.55625,89.45625,-45.94375,-60.64375,31.95625,124.25625,66.55625,0.25625,-28.04375,-47.14375,28.65625,121.45625,2.75625,-169.34375,-259.84375,1
121.4375,29.6375,92.7375,-45.0625,-78.9625,40.5375,127.1375,64.1375,1.5375,-28.0625,-44.0625,30.4375,115.4375,5.9375,-165.2625,-267.5625,1
124.525,32.425,96.125,-43.375,-75.075,36.625,127.125,62.625,1.025,-37.375,-41.575,31.925,114.525,9.025,-164.475,-274.075,1
123.9,35.4,95.2,-41.3,-70.7,36.7,125.4,63.1,-1.4,-35.2,-42.1,34.9,100.9,12.2,-165.6,-271.4,1
125.25,39.65,98.45,-38.35,-93.75,37.85,119.95,63.25,-1.35,-34.75,-41.25,37.85,103.45,16.05,-163.65,-268.65,1
118.0,37.6,92.0,-40.8,-68.3,33.3,123.2,58.7,-2.3,-39.7,-45.1,35.3,126.8,9.3,-165.2,-272.8,1
115.00625,39.00625,88.30625,-40.09375,-49.39375,31.30625,131.30625,57.30625,-4.59375,-45.09375,-46.89375,34.30625,123.10625,9.30625,-167.19375,-275.69375,1
118.475,43.975,89.175,-37.925,-83.025,31.575,124.675,58.975,1.775,-37.525,-42.025,39.175,117.775,9.975,-161.425,-273.625,1
118.11875,43.61875,88.41875,-40.38125,-83.78125,31.71875,123.21875,59.61875,1.01875,-34.18125,-41.78125,41.01875,117.61875,10.61875,-160.58125,-274.28125,1
114.8625,41.6625,83.9625,-41.2375,-81.0375,31.3625,129.9625,60.2625,-3.3375,-37.2375,-43.3375,41.1625,119.3625,15.4625,-158.8375,-273.0375,1
114.525,44.725,83.425,-39.775,-88.475,33.325,120.225,59.925,-0.875,-26.375,-41.375,45.825,104.025,17.225,-158.675,-267.675,1
115.86875,47.26875,85.26875,-37.53125,-95.53125,34.76875,114.06875,60.76875,6.06875,-24.33125,-37.73125,48.86875,84.26875,21.86875,-156.33125,-267.63125,1
114.29375,46.29375,82.39375,-38.60625,-94.50625,32.39375,116.69375,58.89375,2.99375,-36.00625,-38.60625,47.79375,112.29375,18.99375,-158.40625,-266.90625,1
114.55625,46.45625,79.55625,-39.54375,-90.64375,31.35625,118.35625,58.55625,0.05625,-37.54375,-38.64375,48.35625,116.95625,17.05625,-160.74375,-264.14375,1
115.43125,47.13125,79.33125,-39.26875,-84.06875,30.83125,117.43125,57.93125,-3.96875,-35.06875,-39.26875,49.43125,113.93125,17.53125,-164.26875,-263.06875,1
116.53125,48.33125,81.83125,-38.36875,-103.76875,31.83125,117.63125,58.13125,-1.46875,-33.46875,-37.86875,51.33125,109.03125,21.43125,-161.06875,-260.06875,1
114.5875,47.5875,82.8875,-39.8125,-105.7125,32.1875,116.2875,57.9875,-0.1125,-33.5125,-38.4125,51.2875,108.9875,22.6875,-159.1125,-257.8125,1
109.15625,45.15625,80.25625,-42.94375,-72.74375,33.35625,110.95625,57.25625,0.05625,-25.54375,-40.94375,51.35625,94.35625,17.35625,-161.94375,-255.14375,1
107.14375,44.54375,78.54375,-41.95625,-86.75625,35.24375,120.54375,59.74375,-1.45625,-27.75625,-41.45625,50.84375,101.24375,18.64375,-161.75625,-255.35625,1
104.83125,41.43125,76.43125,-45.16875,-92.86875,30.33125,129.93125,61.23125,-1.16875,-25.56875,-41.06875,50.43125,97.13125,30.83125,-162.16875,-254.56875,1
103.33125,38.13125,75.13125,-47.76875,-95.16875,35.23125,120.13125,60.23125,0.93125,-23.86875,-39.96875,50.63125,103.83125,30.83125,-159.96875,-251.66875,1
104.06875,36.46875,77.66875,-48.43125,-109.43125,33.66875,110.66875,58.56875,3.26875,-21.33125,-37.23125,50.96875,116.06875,30.56875,-156.63125,-248.93125,1
101.425,32.525,72.725,-51.675,-74.675,30.825,116.125,56.825,2.925,-26.775,-36.275,47.025,105.725,29.725,-155.375,-251.075,1
102.2375,31.3375,73.6375,-53.1625,-60.6625,30.1375,114.2375,56.6375,6.3375,-23.5625,-34.8625,45.8375,91.9375,25.0375,-153.4625,-251.6625,1
103.5875,30.5875,72.8875,-53.4125,-91.5125,32.4875,112.8875,56.8875,6.4875,-20.4125,-35.9125,44.5875,121.8875,24.4875,-154.9125,-250.6125,1
104.54375,29.04375,74.14375,-52.95625,-95.55625,36.74375,122.14375,58.34375,5.24375,-25.35625,-37.75625,42.94375,108.64375,36.94375,-155.85625,-251.25625,1
104.41875,29.81875,77.51875,-52.68125,-96.38125,31.71875,124.71875,58.21875,4.31875,-26.38125,-38.38125,43.21875,109.71875,37.81875,-156.78125,-250.88125,1
103.3625,30.2625,76.5625,-52.0375,-91.0375,34.0625,124.5625,59.8625,5.4625,-24.2375,-37.3375,44.0625,106.5625,28.9625,-156.9375,-252.1375,1
106.34375,31.04375,78.74375,-52.35625,-81.75625,33.94375,123.14375,60.24375,5.84375,-21.75625,-36.95625,45.24375,96.84375,21.34375,-159.45625,-250.45625,1
109.04375,33.54375,80.34375,-50.55625,-84.05625,37.54375,121.44375,59.04375,3.24375,-24.05625,-37.35625,46.04375,92.24375,24.74375,-160.85625,-250.35625,1
111.26875,36.86875,82.96875,-47.53125,-94.73125,37.56875,121.86875,57.96875,1.26875,-26.43125,-37.23125,47.06875,89.86875,29.26875,-161.23125,-248.83125,1
112.66875,37.46875,84.16875,-47.93125,-124.73125,31.26875,127.86875,57.86875,-2.03125,-24.43125,-38.83125,49.36875,115.26875,29.26875,-166.03125,-241.23125,1
110.75,35.55,82.45,-48.55,-98.85,31.15,126.75,57.75,-3.35,-28.75,-40.55,47.15,121.55,22.95,-169.25,-246.75,1
108.6375,35.7375,83.3375,-48.6625,-70.2625,30.3375,110.4375,57.0375,0.0375,-15.8625,-40.3625,48.5375,106.8375,17.8375,-171.5625,-252.0625,1
106.14375,38.64375,79.94375,-47.65625,-75.35625,33.04375,117.04375,59.04375,-1.85625,-14.95625,-41.55625,50.54375,101.54375,21.04375,-175.05625,-250.55625,1
106.71875,43.11875,81.71875,-44.08125,-85.98125,38.91875,127.41875,63.41875,-9.48125,-28.88125,-42.78125,52.11875,91.11875,27.61875,-176.58125,-244.38125,1
107.49375,44.39375,83.99375,-44.10625,-89.10625,37.69375,125.39375,61.09375,-9.00625,-35.10625,-43.00625,51.89375,99.29375,27.59375,-175.20625,-243.30625,1
107.7,41.7,85.2,-46.3,-69.0,34.0,124.4,59.5,-0.4,-23.6,-42.7,49.9,98.2,13.1,-173.8,-257.9,1
110.4125,44.9125,90.5125,-44.2875,-76.5875,35.4125,130.3125,62.9125,-3.2875,-20.8875,-45.0875,52.6125,74.5125,19.4125,-180.3875,-250.4875,1
113.36875,45.26875,87.26875,-44.93125,-82.23125,33.26875,123.96875,60.96875,-11.33125,-27.93125,-47.03125,52.56875,107.36875,22.06875,-185.43125,-247.23125,1
121.6625,47.3625,89.0625,-44.7375,-95.2375,30.2625,132.1625,61.2625,-8.1375,-25.1375,-42.4375,55.2625,106.9625,6.8625,-179.3375,-255.8375,1
124.40625,43.50625,88.90625,-46.59375,-106.29375,29.00625,140.90625,60.40625,-6.09375,-25.69375,-41.39375,52.00625,113.10625,14.60625,-175.69375,-265.09375,1
125.2125,40.2125,90.9125,-48.9875,-70.6875,25.8125,125.3125,56.6125,-8.0875,-28.0875,-42.7875,49.5125,113.7125,14.4125,-177.5875,-265.4875,1
128.2375,42.3375,94.6375,-48.0625,-78.2625,25.0375,119.9375,56.2375,-4.7625,-30.0625,-39.0625,50.1375,113.8375,6.3375,-172.0625,-264.4625,1
128.5375,38.5375,93.0375,-50.5625,-88.4625,27.9375,125.6375,56.0375,-3.4625,-30.2625,-37.2625,48.8375,114.0375,10.4375,-168.9625,-264.0625,1
127.0375,37.2375,90.1375,-52.4625,-75.1625,26.2375,128.3375,54.8375,-3.4625,-33.8625,-36.7625,46.8375,112.3375,12.3375,-168.1625,-265.4625,1
124.79375,40.19375,86.39375,-53.80625,-82.50625,20.39375,125.09375,50.59375,0.59375,-25.00625,-35.10625,50.49375,105.69375,19.59375,-166.20625,-261.20625,1
122.6375,41.4375,86.8375,-53.8625,-95.6625,23.6375,122.6375,51.2375,2.8375,-21.6625,-32.9625,53.1375,104.3375,16.7375,-163.7625,-257.5625,1
121.28125,41.88125,85.68125,-54.31875,-86.21875,26.58125,121.28125,51.38125,3.18125,-42.61875,-30.81875,51.18125,113.48125,20.68125,-160.31875,-262.31875,1
119.99375,41.29375,81.79375,-56.40625,-80.80625,24.89375,118.49375,49.79375,12.69375,-30.30625,-26.00625,54.99375,85.39375,19.39375,-155.10625,-260.10625,1
118.00625,36.70625,77.70625,-59.19375,-76.89375,21.80625,113.40625,46.10625,16.70625,-22.29375,-23.99375,54.00625,98.10625,13.60625,-152.49375,-261.29375,1
116.01875,33.81875,74.51875,-58.78125,-105.68125,22.31875,114.91875,45.61875,21.11875,-23.28125,-21.98125,53.31875,121.61875,14.41875,-148.58125,-259.38125,1
112.76875,30.76875,70.86875,-60.43125,-93.13125,20.06875,111.26875,43.96875,26.16875,-16.83125,-20.43125,53.26875,115.06875,12.06875,-146.83125,-258.63125,1
113.25625,31.55625,69.65625,-60.84375,-97.64375,20.95625,101.85625,45.95625,28.15625,-11.84375,-17.44375,56.55625,110.15625,11.85625,-145.94375,-256.24375,1
109.9375,30.9375,63.5375,-64.8625,-106.4625,18.9375,102.3375,43.1375,39.4375,-5.3625,-14.9625,58.8375,103.1375,13.4375,-140.7625,-251.2625,1
106.25,30.15,58.35,-67.35,-103.15,20.65,103.85,39.25,44.65,-8.75,-14.35,57.55,110.05,14.15,-136.65,-254.65,1
104.98125,34.48125,55.98125,-64.71875,-117.01875,20.68125,108.08125,42.28125,35.58125,-3.11875,-16.01875,59.88125,111.38125,21.98125,-145.11875,-249.31875,1
106.74375,38.44375,59.44375,-60.65625,-125.55625,23.64375,105.64375,46.04375,38.44375,-3.45625,-13.25625,62.04375,91.54375,22.94375,-143.65625,-248.35625,1
105.925,37.525,59.725,-61.175,-104.775,24.225,103.825,45.325,42.725,-4.675,-11.675,60.025,75.725,18.525,-139.875,-251.375,1
105.6875,34.5875,55.3875,-63.3125,-98.9125,22.3875,101.0875,43.5875,39.2875,-6.9125,-13.9125,55.4875,105.9875,14.6875,-142.2125,-252.9125,1
109.925,37.425,56.625,-59.475,-134.675,24.125,100.725,46.725,44.525,-2.175,-11.775,57.125,98.825,15.325,-136.975,-246.275,1
108.06875,33.26875,53.86875,-62.83125,-126.83125,20.66875,99.26875,39.96875,51.56875,-3.13125,-12.63125,55.26875,101.36875,16.96875,-131.23125,-243.63125,1
108.48125,26.78125,53.68125,-65.21875,-96.41875,21.08125,97.48125,39.98125,49.48125,-3.31875,-14.21875,54.08125,97.68125,8.28125,-133.51875,-244.31875,1
110.36875,27.36875,56.86875,-63.13125,-118.73125,20.66875,102.46875,44.36875,49.56875,2.36875,-11.83125,54.96875,99.06875,12.46875,-134.23125,-252.63125,1
107.875,27.575,53.675,-65.125,-112.525,21.775,103.475,43.875,51.675,4.175,-13.125,54.775,97.075,16.775,-139.925,-252.025,1
105.34375,30.04375,53.54375,-66.35625,-99.65625,21.04375,104.54375,43.44375,47.54375,0.04375,-15.55625,55.24375,92.84375,17.04375,-142.25625,-246.85625,1
102.93125,34.03125,56.83125,-64.86875,-102.86875,22.53125,106.83125,44.13125,48.83125,2.13125,-16.26875,56.73125,77.33125,18.33125,-141.46875,-245.16875,1
101.65,36.85,61.55,-63.15,-115.25,22.75,111.15,45.45,53.55,8.55,-15.45,58.75,65.25,12.95,-138.95,-245.65,1
101.04375,39.34375,64.34375,-62.45625,-147.85625,22.64375,97.34375,45.84375,55.34375,9.14375,-14.55625,59.54375,98.44375,11.74375,-136.65625,-243.25625,1
94.66875,37.76875,57.86875,-65.63125,-102.73125,19.16875,102.36875,42.36875,51.96875,8.26875,-18.23125,56.86875,93.86875,10.16875,-141.93125,-246.83125,1
92.50625,33.70625,55.10625,-68.09375,-69.99375,14.40625,108.00625,40.70625,51.30625,5.80625,-18.69375,54.10625,87.90625,4.90625,-138.99375,-252.69375,1
94.93125,31.73125,58.73125,-66.46875,-99.96875,17.23125,111.93125,43.83125,50.53125,5.73125,-17.76875,53.93125,101.33125,4.63125,-139.46875,-250.86875,1
93.20625,29.70625,58.30625,-66.89375,-105.89375,17.80625,112.00625,44.60625,53.40625,16.50625,-17.39375,54.70625,93.70625,5.00625,-139.89375,-248.89375,1
94.8375,29.7375,60.7375,-64.5625,-103.9625,19.4375,113.8375,47.3375,54.2375,4.3375,-15.2625,53.2375,89.0375,5.0375,-135.7625,-252.2625,1
98.59375,32.09375,63.99375,-61.80625,-128.80625,20.99375,110.09375,50.29375,56.49375,9.79375,-12.10625,56.19375,76.59375,8.49375,-132.50625,-248.40625,1
99.50625,30.40625,64.60625,-63.69375,-125.39375,17.70625,104.40625,47.40625,54.90625,7.40625,-12.69375,54.30625,100.00625,5.10625,-133.29375,-250.69375,1
99.0,27.1,60.9,-67.7,-79.7,14.5,103.7,44.3,50.9,5.9,-16.5,52.1,100.6,-3.9,-137.3,-253.9,1
97.39375,28.89375,56.99375,-68.40625,-83.30625,14.99375,107.99375,41.79375,48.99375,9.19375,-18.50625,54.69375,95.69375,2.29375,-138.90625,-249.80625,1
98.65,33.75,57.95,-66.55,-103.75,18.25,111.25,44.05,47.05,0.45,-18.95,56.65,96.05,8.75,-138.05,-245.55,1
101.8125,39.3125,60.7125,-62.9875,-150.0875,21.8125,110.6125,47.1125,48.2125,1.8125,-18.0875,59.8125,103.1125,13.3125,-136.3875,-240.0875,1
98.88125,32.08125,55.38125,-66.61875,-106.11875,24.08125,111.28125,44.48125,43.48125,-1.11875,-24.31875,53.98125,101.18125,17.68125,-139.81875,-244.51875,1
98.25625,29.85625,55.95625,-66.24375,-81.74375,24.75625,100.55625,43.75625,42.25625,4.85625,-26.84375,52.35625,101.25625,11.25625,-141.24375,-249.04375,1
98.1625,30.5625,58.7625,-63.0375,-90.2375,22.0625,97.9625,44.8625,42.9625,7.8625,-27.9375,52.9625,101.9625,12.7625,-139.3375,-250.3375,1
97.7,31.0,59.4,-60.3,-103.8,27.2,103.5,47.7,40.1,3.1,-29.4,53.4,100.1,17.0,-139.2,-247.5,1
99.46875,32.96875,63.66875,-58.23125,-112.43125,30.86875,105.96875,50.06875,38.06875,0.26875,-29.13125,54.66875,82.76875,21.56875,-137.43125,-243.13125,1
96.51875,31.81875,61.91875,-61.28125,-79.08125,27.91875,103.51875,46.01875,34.31875,-0.98125,-32.98125,53.61875,78.61875,24.51875,-145.08125,-239.38125,1
95.93125,33.43125,55.63125,-62.96875,-97.26875,26.53125,100.43125,45.03125,33.03125,-2.86875,-33.86875,54.13125,112.93125,26.53125,-147.06875,-239.56875,1
97.625,35.225,55.325,-61.175,-105.775,29.325,106.425,47.225,32.225,-1.775,-32.475,55.425,109.525,22.725,-144.975,-244.875,1
97.73125,35.53125,57.23125,-61.06875,-108.06875,28.93125,105.93125,47.23125,33.23125,1.23125,-31.36875,57.43125,104.73125,20.13125,-144.16875,-244.66875,1
97.76875,36.76875,57.36875,-60.73125,-118.73125,29.56875,102.26875,47.76875,30.26875,2.16875,-31.03125,59.46875,106.56875,27.96875,-147.03125,-240.43125,1
96.075,35.675,53.775,-62.725,-106.825,28.675,99.575,45.175,30.375,10.375,-31.025,60.675,99.075,27.275,-147.525,-238.625,1
98.43125,35.23125,53.23125,-61.86875,-97.56875,32.93125,110.03125,46.93125,28.63125,-6.26875,-29.16875,58.13125,105.33125,17.73125,-146.56875,-245.16875,1
100.14375,36.44375,55.24375,-62.15625,-92.95625,30.44375,101.64375,45.34375,29.14375,-5.85625,-27.05625,58.54375,100.14375,17.54375,-145.65625,-240.95625,1
102.45,40.75,62.95,-59.75,-115.45,27.05,95.95,46.95,33.25,2.15,-24.45,61.75,81.85,22.95,-143.05,-235.35,1
97.8,40.3,59.9,-61.8,-105.8,25.7,98.3,45.0,33.7,8.3,-26.7,60.4,90.1,20.8,-146.1,-239.9,1
97.60625,43.50625,55.10625,-60.29375,-101.79375,25.80625,101.80625,45.30625,26.50625,-4.39375,-25.99375,59.50625,105.90625,22.20625,-148.19375,-242.59375,1
100.025,46.125,57.125,-57.975,-116.875,26.025,98.225,42.525,29.525,-3.075,-22.275,60.225,105.325,23.925,-145.175,-243.675,1
101.75625,43.25625,64.85625,-57.84375,-115.94375,27.95625,99.65625,43.25625,27.25625,-5.24375,-23.04375,56.25625,104.35625,23.55625,-144.74375,-245.34375,1
102.53125,41.53125,68.23125,-56.26875,-107.06875,29.53125,105.93125,46.13125,21.33125,-4.46875,-24.46875,54.53125,98.63125,21.83125,-152.46875,-245.46875,1
102.6875,39.6875,66.8875,-55.3125,-77.2125,31.1875,109.2875,46.9875,26.0875,-14.3125,-21.3125,51.5875,80.2875,15.4875,-148.7125,-253.3125,1
104.325,38.625,65.925,-57.275,-102.975,28.025,107.525,43.825,29.925,-6.975,-18.375,52.325,104.625,8.925,-146.975,-251.475,1
107.20625,41.30625,68.80625,-56.89375,-106.89375,21.40625,111.90625,43.50625,26.00625,-5.19375,-17.19375,55.50625,98.70625,8.70625,-149.69375,-247.19375,1
108.05625,38.45625,68.35625,-56.64375,-110.44375,25.05625,119.95625,45.45625,24.05625,-13.24375,-17.44375,53.95625,91.55625,20.25625,-149.74375,-247.64375,1
108.975,36.475,69.675,-56.625,-117.225,23.375,113.975,45.275,28.175,-4.025,-15.425,55.275,87.975,16.275,-146.625,-245.525,1
113.9375,37.0375,77.0375,-54.1625,-110.4625,25.1375,106.1375,47.6375,30.1375,-14.7625,-12.7625,53.8375,84.7375,14.1375,-143.8625,-253.7625,1
109.76875,31.96875,73.66875,-59.13125,-86.63125,19.76875,106.46875,43.96875,27.86875,-13.23125,-15.83125,51.26875,108.46875,6.66875,-148.23125,-256.83125,1
108.075,30.275,71.475,-61.525,-65.225,17.875,112.175,43.875,22.775,-12.325,-18.925,51.675,105.775,2.975,-152.825,-256.125,1
108.39375,32.99375,70.99375,-61.60625,-78.50625,18.59375,117.09375,44.19375,23.09375,-11.50625,-18.00625,55.19375,96.79375,6.49375,-150.30625,-253.90625,1
108.70625,33.40625,72.10625,-63.69375,-87.19375,15.90625,114.40625,42.40625,25.90625,-7.59375,-17.39375,58.00625,98.70625,5.10625,-149.09375,-249.69375,1
111.15,36.25,75.85,-63.05,-102.45,16.55,118.65,45.15,28.25,-9.25,-15.15,60.65,77.95,9.85,-144.75,-245.65,1
111.625,34.225,73.025,-65.475,-87.075,15.425,115.725,44.325,24.225,-13.475,-16.475,58.025,93.325,8.725,-145.875,-250.275,1
112.74375,34.54375,73.84375,-64.85625,-88.85625,16.74375,112.14375,44.94375,22.44375,-10.55625,-16.45625,58.04375,94.34375,7.04375,-145.35625,-250.75625,1
110.23125,35.93125,74.83125,-62.86875,-109.96875,19.63125,107.63125,46.53125,25.83125,-6.86875,-16.96875,59.13125,96.23125,9.13125,-143.56875,-244.86875,1
106.15,34.45,72.85,-62.45,-89.05,22.05,114.65,47.45,20.85,-20.75,-21.25,53.05,105.85,12.55,-144.95,-251.45,1
105.5,36.6,68.9,-60.0,-109.6,26.3,124.3,50.3,19.1,-20.4,-21.7,54.2,105.5,14.2,-148.5,-244.7,1
105.3625,33.9625,66.6625,-62.0375,-85.7375,24.6625,112.4625,49.1625,23.2625,-11.0375,-20.2375,53.4625,105.8625,-0.8375,-145.0375,-249.9375,1
104.7625,32.0625,65.2625,-62.3375,-80.1375,25.3625,110.0625,46.9625,24.7625,-14.4375,-20.3375,49.5625,103.9625,19.5625,-144.0375,-261.0375,1
106.21875,35.51875,64.91875,-59.08125,-85.68125,27.81875,112.11875,46.31875,25.51875,-17.88125,-19.38125,51.01875,87.61875,24.21875,-143.18125,-256.08125,1
109.26875,36.56875,67.26875,-56.63125,-103.03125,29.66875,113.96875,44.86875,30.76875,-7.73125,-17.03125,53.36875,79.16875,15.96875,-140.03125,-256.43125,1
108.55,34.75,65.35,-56.05,-101.05,29.05,114.95,43.25,32.35,-4.95,-17.85,51.55,100.15,5.95,-141.15,-264.85,1
109.40625,37.50625,65.40625,-54.49375,-105.09375,23.00625,113.80625,44.90625,29.70625,-9.39375,-18.69375,52.90625,100.40625,13.30625,-143.49375,-259.19375,1
110.29375,41.29375,66.79375,-50.10625,-130.00625,30.09375,112.59375,49.69375,28.39375,-9.10625,-19.40625,56.19375,91.19375,20.29375,-145.10625,-253.10625,1
105.8125,42.4125,62.3125,-48.4875,-126.6875,33.2125,113.6125,51.2125,29.6125,-8.5875,-22.4875,56.3125,90.7125,17.9125,-144.8875,-251.9875,1
98.525,39.125,56.725,-51.075,-98.975,29.125,110.025,46.625,29.125,-9.575,-27.075,54.925,92.125,27.325,-146.675,-250.275,1
96.4875,37.9875,55.4875,-49.7125,-89.1125,33.2875,111.6875,49.3875,22.4875,-11.5125,-30.0125,54.7875,91.5875,28.3875,-153.5125,-247.7125,1
97.1375,39.2375,56.6375,-47.7625,-90.1625,35.5375,114.1375,53.3375,17.7375,-7.1625,-31.4625,55.9375,89.4375,23.7375,-160.5625,-245.7625,1
100.675,44.175,58.875,-43.125,-117.325,41.175,119.475,58.475,22.575,-6.225,-29.225,57.975,68.975,25.875,-157.325,-245.025,1
100.8625,46.1625,57.9625,-43.3375,-133.5375,41.2625,108.0625,56.9625,21.7625,-1.5375,-31.2375,57.5625,95.8625,24.5625,-157.5375,-243.8375,1
97.43125,44.83125,55.23125,-45.56875,-97.96875,37.83125,102.13125,54.13125,19.83125,-3.06875,-36.56875,54.93125,98.93125,22.93125,-160.86875,-244.16875,1
95.9625,43.9625,55.7625,-46.0375,-91.6375,37.4625,109.8625,53.4625,24.3625,-4.3375,-38.8375,53.4625,84.4625,23.0625,-158.2375,-242.7375,1
94.58125,45.88125,59.48125,-43.81875,-112.41875,40.68125,109.98125,55.88125,33.68125,1.98125,-37.71875,55.88125,57.38125,27.08125,-152.11875,-236.41875,1
92.64375,45.74375,59.94375,-44.45625,-124.55625,39.34375,102.04375,56.84375,21.84375,-0.55625,-42.65625,55.04375,105.04375,28.74375,-162.55625,-232.45625,1
91.28125,44.48125,56.88125,-46.81875,-92.11875,37.48125,112.48125,55.58125,11.88125,-7.11875,-46.81875,51.98125,105.48125,31.78125,-168.31875,-238.11875,1
92.1,44.4,57.5,-49.9,-96.3,34.4,116.1,51.9,14.0,-2.2,-45.3,53.2,103.7,32.8,-168.0,-238.4,1
96.4,47.1,62.9,-49.1,-103.4,33.4,114.9,52.8,17.4,-13.0,-41.1,54.4,101.0,27.8,-163.2,-238.3,1
100.2375,46.8375,69.0375,-50.0625,-98.7625,32.7375,111.4375,53.6375,14.4375,-15.9625,-39.7625,54.8375,98.1375,24.9375,-163.2625,-238.4625,1
100.06875,45.86875,70.16875,-52.13125,-85.53125,33.26875,112.96875,52.56875,10.56875,-16.53125,-41.43125,52.36875,97.16875,27.76875,-167.33125,-239.83125,1
101.875,44.475,68.875,-52.325,-103.825,33.375,126.675,54.675,9.875,-18.725,-39.625,51.175,102.875,24.375,-163.825,-239.925,1
103.1875,41.3875,70.6875,-53.5125,-101.0125,31.3875,126.9875,54.9875,10.6875,-16.8125,-38.3125,50.0875,105.0875,20.6875,-161.7125,-243.8125,1
105.925,39.925,75.125,-52.975,-90.075,31.125,118.325,55.525,11.025,-19.375,-36.475,47.825,107.125,16.225,-159.875,-249.375,1
109.10625,38.90625,77.70625,-52.59375,-104.89375,31.20625,116.60625,56.80625,14.50625,-15.19375,-33.39375,47.50625,116.60625,10.30625,-155.89375,-257.29375,1
110.10625,38.30625,79.40625,-53.49375,-104.39375,30.40625,123.50625,56.90625,12.50625,-18.79375,-32.79375,47.10625,113.30625,11.80625,-157.09375,-256.79375,1
108.325,35.925,78.425,-56.975,-87.575,29.725,125.925,54.025,10.625,-19.575,-33.375,46.025,115.125,7.225,-157.675,-256.175,1
107.825,31.825,78.925,-58.775,-91.475,31.325,124.625,54.725,11.225,-19.075,-31.375,46.025,113.025,14.325,-155.175,-257.975,1
113.24375,35.34375,86.64375,-56.15625,-122.65625,31.54375,128.44375,56.54375,16.54375,-17.25625,-25.75625,50.34375,87.94375,17.64375,-147.95625,-254.45625,1
109.41875,31.01875,84.11875,-60.18125,-85.28125,30.71875,125.61875,51.21875,13.21875,-25.38125,-28.28125,45.41875,108.11875,11.51875,-150.68125,-260.58125,1
107.14375,31.84375,78.44375,-63.25625,-81.35625,19.74375,124.34375,46.74375,11.74375,-23.85625,-29.35625,44.74375,133.14375,10.94375,-151.25625,-259.75625,1
109.04375,31.24375,78.14375,-63.15625,-57.25625,21.24375,125.04375,48.54375,9.84375,-25.75625,-29.55625,42.04375,122.04375,6.24375,-151.75625,-265.95625,1
109.125,30.325,79.225,-62.075,-65.175,24.125,124.825,50.125,8.625,-25.975,-30.575,40.325,120.225,14.225,-151.175,-266.175,1
109.50625,30.20625,83.30625,-59.09375,-68.29375,25.20625,129.60625,53.30625,8.40625,-35.09375,-31.29375,38.60625,119.10625,13.90625,-149.29375,-268.09375,1
110.14375,30.44375,81.24375,-56.95625,-87.65625,27.44375,126.64375,54.24375,14.24375,-25.25625,-29.35625,39.84375,115.04375,10.44375,-144.85625,-265.65625,1
111.64375,32.74375,81.04375,-54.65625,-91.75625,32.54375,122.44375,55.44375,15.24375,-28.35625,-28.05625,40.54375,106.04375,13.94375,-144.05625,-264.75625,1
108.41875,33.41875,77.21875,-55.28125,-83.08125,32.61875,122.61875,53.01875,15.11875,-25.28125,-30.28125,41.11875,100.11875,18.01875,-147.08125,-260.68125,1
105.15,34.15,71.85,-55.45,-99.65,31.95,127.25,51.45,15.15,-29.75,-32.55,40.45,121.15,21.65,-145.25,-257.55,1
104.83125,36.23125,73.33125,-53.46875,-93.46875,33.23125,114.13125,52.23125,16.63125,-25.06875,-32.56875,42.63125,117.43125,20.73125,-147.36875,-259.46875,1
104.79375,37.19375,72.59375,-52.30625,-92.50625,33.79375,112.69375,51.39375,18.89375,-18.40625,-32.90625,43.69375,109.39375,22.69375,-149.10625,-261.90625,1
105.63125,37.13125,71.63125,-51.36875,-87.76875,33.23125,113.03125,51.43125,14.83125,-26.56875,-34.56875,43.03125,118.53125,22.83125,-151.16875,-259.86875,1
106.4,38.4,70.3,-49.3,-96.4,35.6,117.3,52.8,9.2,-26.1,-37.4,44.8,117.8,26.5,-156.0,-253.9,1
106.5125,38.7125,67.3125,-48.2875,-103.6875,39.2125,121.7125,53.0125,12.3125,-21.4875,-38.1875,45.1125,107.0125,30.7125,-154.4875,-255.4875,1
105.1125,39.1125,64.4125,-45.9875,-104.7875,40.7125,122.3125,55.3125,13.3125,-17.2875,-40.2875,46.1125,106.9125,22.0125,-156.7875,-250.1875,1
102.6125,38.7125,64.2125,-44.3875,-80.8875,41.0125,116.7125,56.5125,8.5125,-18.8875,-44.0875,46.4125,101.9125,21.2125,-162.8875,-246.6875,1
102.31875,42.51875,65.01875,-41.48125,-86.28125,43.31875,116.01875,59.81875,7.81875,-19.78125,-45.08125,48.31875,96.01875,25.51875,-162.68125,-251.38125,1
102.43125,48.33125,66.83125,-36.66875,-87.26875,48.13125,111.23125,64.13125,10.73125,-22.56875,-44.96875,51.13125,72.03125,30.23125,-162.06875,-251.66875,1
101.5875,48.1875,66.4875,-35.8125,-101.8125,50.4875,109.7875,64.8875,13.0875,-20.4125,-46.7125,52.0875,78.3875,35.8875,-162.7125,-253.4125,1
98.44375,48.14375,64.94375,-34.65625,-110.85625,51.44375,113.04375,65.24375,6.64375,-21.65625,-52.15625,51.24375,106.14375,36.04375,-169.75625,-252.25625,1
96.71875,49.81875,67.11875,-32.68125,-97.08125,53.11875,113.01875,65.51875,5.51875,-22.08125,-54.68125,52.41875,81.01875,41.61875,-170.88125,-248.48125,1
97.25,50.85,66.55,-32.45,-112.15,52.35,112.45,65.05,5.95,-22.85,-54.85,53.65,92.85,40.55,-170.05,-245.15,1
96.08125,49.18125,63.88125,-35.61875,-87.41875,49.98125,116.98125,63.88125,2.98125,-23.51875,-58.31875,51.78125,95.08125,36.28125,-176.41875,-244.81875,1
100.53125,50.83125,69.93125,-34.56875,-92.46875,50.33125,118.43125,66.33125,5.93125,-19.26875,-56.96875,53.63125,71.63125,36.43125,-176.36875,-244.36875,1
102.44375,49.14375,76.74375,-34.65625,-118.75625,48.94375,114.14375,66.44375,8.94375,-16.15625,-56.25625,52.94375,89.64375,35.54375,-172.55625,-246.55625,1
97.175,45.075,74.475,-37.925,-85.225,45.275,118.575,65.075,0.175,-22.225,-61.125,49.175,104.375,33.475,-179.325,-247.025,1
95.7,44.7,72.0,-38.8,-83.6,44.7,124.9,66.6,0.7,-24.9,-60.5,49.4,98.0,35.7,-179.0,-245.6,1
94.49375,43.29375,71.59375,-41.90625,-77.70625,41.69375,128.99375,65.39375,1.49375,-24.80625,-59.40625,48.39375,97.09375,37.79375,-176.70625,-249.70625,1
93.95,42.15,74.95,-44.35,-68.65,38.35,139.15,65.35,1.45,-21.95,-58.65,47.65,89.05,29.05,-175.85,-251.65,1
96.0625,43.4625,80.3625,-43.9375,-82.9375,38.8625,130.5625,65.5625,4.4625,-20.2375,-55.7375,48.5625,92.1625,26.9625,-172.6375,-251.5375,1
95.21875,44.41875,79.51875,-43.88125,-105.08125,46.01875,122.91875,65.91875,5.01875,-16.38125,-54.18125,50.21875,100.41875,29.51875,-172.58125,-247.08125,1
91.65625,40.35625,76.45625,-50.64375,-66.14375,36.85625,122.85625,60.25625,0.95625,-16.54375,-55.24375,49.15625,109.45625,24.95625,-176.34375,-248.04375,1
95.19375,40.59375,78.99375,-53.30625,-62.60625,26.09375,131.59375,61.19375,2.59375,-30.60625,-51.20625,48.79375,107.59375,27.59375,-169.60625,-252.90625,1
98.975,39.275,81.575,-54.625,-86.625,25.275,126.875,60.875,8.475,-23.725,-45.825,50.875,111.975,21.975,-161.925,-253.425,1
102.49375,38.89375,87.09375,-55.20625,-112.70625,25.39375,123.09375,61.59375,15.69375,-16.00625,-41.10625,53.29375,111.59375,16.99375,-157.90625,-253.20625,1
99.36875,37.26875,83.06875,-56.63125,-56.43125,21.96875,132.56875,59.96875,10.16875,-22.33125,-43.73125,51.06875,80.76875,19.36875,-161.33125,-255.13125,1
92.08125,33.58125,79.38125,-60.91875,-22.91875,18.58125,128.58125,55.68125,2.28125,-29.31875,-49.71875,45.88125,111.68125,18.28125,-167.31875,-255.81875,1
96.00625,38.00625,87.00625,-55.69375,-76.79375,29.90625,117.90625,59.60625,3.40625,-34.99375,-46.29375,47.70625,127.20625,22.20625,-160.79375,-254.39375,1
96.0875,38.8875,85.4875,-54.0125,-78.9125,31.0875,131.3875,60.4875,4.8875,-25.4125,-45.9125,48.3875,101.7875,21.8875,-161.9125,-254.2125,1
96.01875,39.81875,83.61875,-51.48125,-86.08125,32.21875,130.71875,62.41875,11.21875,-20.08125,-43.18125,49.51875,92.01875,22.01875,-156.38125,-262.38125,1
91.89375,34.89375,75.69375,-54.80625,-55.80625,28.99375,131.29375,61.49375,8.89375,-20.50625,-45.80625,45.99375,116.39375,10.09375,-159.70625,-269.00625,1
94.98125,36.38125,77.88125,-54.31875,-45.31875,30.28125,125.68125,63.18125,8.88125,-19.81875,-44.51875,47.98125,102.68125,0.28125,-159.81875,-264.41875,1
96.50625,38.50625,76.70625,-54.59375,-66.39375,27.20625,118.60625,61.00625,11.10625,-15.59375,-42.69375,49.60625,116.80625,3.40625,-157.09375,-263.09375,1
97.23125,36.83125,75.83125,-55.16875,-54.66875,28.63125,124.33125,58.83125,8.33125,-27.06875,-43.46875,47.23125,115.73125,13.63125,-158.46875,-267.76875,1
97.43125,36.33125,73.03125,-56.16875,-39.46875,28.43125,128.73125,57.03125,5.13125,-32.96875,-44.36875,45.73125,110.83125,16.03125,-158.96875,-266.76875,1
98.3375,38.6375,76.4375,-53.7625,-39.9625,31.1375,129.1375,58.9375,4.6375,-29.7625,-43.3625,48.3375,83.6375,18.5375,-158.6625,-262.2625,1
98.75,36.25,78.65,-53.85,-57.85,32.25,130.95,60.05,4.15,-29.15,-43.65,46.65,106.65,16.45,-159.95,-266.35,1
99.15625,35.25625,74.95625,-54.44375,-89.74375,33.15625,121.85625,59.55625,10.25625,-23.54375,-41.04375,47.95625,128.65625,17.65625,-155.84375,-263.84375,1
99.525,34.025,74.225,-55.075,-82.675,34.625,118.125,59.525,11.425,-20.375,-40.875,48.325,116.325,19.625,-155.675,-261.075,1
100.375,33.075,73.975,-54.425,-75.325,40.475,118.875,60.875,10.775,-19.625,-41.225,46.675,99.275,22.375,-155.725,-260.425,1
104.2375,32.0375,76.4375,-55.5625,-82.6625,34.4375,115.1375,58.9375,15.8375,-17.4625,-38.3625,45.2375,102.6375,19.2375,-148.3625,-261.7625,1
98.58125,29.28125,72.78125,-58.41875,-68.91875,30.58125,118.18125,57.58125,13.58125,-17.11875,-42.71875,41.08125,127.98125,18.38125,-154.61875,-266.21875,1
95.73125,31.53125,64.33125,-57.46875,-54.86875,32.83125,124.03125,58.43125,10.43125,-16.86875,-45.26875,40.13125,112.73125,26.13125,-159.26875,-262.56875,1
99.1625,32.9625,63.0625,-55.2375,-62.4375,35.9625,127.5625,60.4625,11.1625,-24.1375,-42.9375,40.0625,110.2625,24.0625,-157.4375,-262.5375,1
100.3875,31.2875,62.6875,-55.3125,-55.4125,38.2875,122.1875,57.5875,14.1875,-17.0125,-41.9125,40.7875,101.1875,20.3875,-156.9125,-262.4125,1
101.83125,30.83125,65.13125,-54.76875,-73.86875,33.93125,121.33125,57.93125,17.73125,-10.96875,-40.56875,42.23125,104.53125,17.93125,-153.76875,-259.46875,1
100.075,30.275,62.275,-55.625,-70.225,27.975,130.475,59.375,17.575,-11.225,-41.725,41.375,107.275,15.375,-154.525,-258.725,1
99.48125,31.68125,61.88125,-53.81875,-66.01875,31.38125,124.28125,60.28125,17.58125,-12.11875,-41.51875,39.98125,100.28125,19.78125,-155.51875,-257.61875,1
100.20625,34.50625,62.80625,-51.19375,-72.49375,33.10625,122.10625,60.30625,15.90625,-15.29375,-42.59375,39.10625,102.00625,25.10625,-157.79375,-255.79375,1
98.54375,36.94375,61.44375,-49.25625,-80.15625,33.34375,121.64375,60.04375,13.94375,-13.35625,-44.55625,40.04375,105.94375,26.34375,-159.35625,-251.55625,1
98.09375,41.39375,63.89375,-45.40625,-93.70625,37.09375,122.39375,63.89375,15.69375,-13.00625,-44.20625,42.49375,94.79375,28.99375,-157.80625,-254.60625,1
98.26875,48.66875,68.36875,-41.73125,-82.23125,41.66875,118.56875,65.76875,11.76875,-17.03125,-45.93125,45.66875,63.66875,38.96875,-161.33125,-253.13125,1
95.11875,49.91875,64.61875,-46.18125,-67.68125,35.01875,116.51875,58.21875,7.41875,-18.38125,-50.38125,45.21875,100.01875,33.21875,-167.88125,-254.78125,1
95.1375,46.9375,62.4375,-48.9625,-71.5625,34.1375,119.8375,57.2375,10.9375,-13.8625,-50.4625,47.2375,107.5375,24.8375,-166.4625,-254.9625,1
95.025,47.625,62.525,-48.575,-77.475,36.025,122.325,58.425,11.725,-13.775,-51.075,49.725,100.225,24.725,-165.275,-252.175,1
95.13125,48.73125,65.73125,-48.06875,-67.86875,38.03125,122.33125,59.73125,6.93125,-17.26875,-53.46875,50.53125,93.33125,29.13125,-169.46875,-253.46875,1
94.58125,50.58125,69.18125,-47.91875,-71.71875,39.98125,119.08125,60.58125,5.98125,-20.61875,-54.11875,52.28125,93.08125,32.58125,-170.11875,-253.41875,1
92.76875,50.76875,68.36875,-49.03125,-76.03125,39.96875,123.26875,61.56875,5.96875,-16.83125,-55.13125,54.96875,90.26875,30.16875,-171.73125,-249.33125,1
89.5625,49.8625,63.0625,-50.6375,-81.6375,44.4625,116.0625,61.2625,8.0625,-10.6375,-56.0375,58.1625,86.4625,34.9625,-171.8375,-241.1375,1
88.75,49.05,62.15,-51.75,-90.35,42.35,120.65,58.85,8.55,-6.85,-55.05,61.95,82.25,38.15,-172.35,-236.35,1
92.56875,48.56875,66.36875,-50.93125,-93.43125,41.06875,125.56875,59.66875,6.56875,-25.63125,-51.53125,62.76875,88.06875,34.96875,-167.53125,-237.13125,1
94.4125,43.9125,67.9125,-52.9875,-84.2875,39.2125,117.4125,61.7125,11.9125,-21.2875,-47.8875,62.5125,90.5125,29.0125,-165.3875,-246.6875,1
95.825,42.725,68.525,-55.675,-82.775,38.125,117.725,58.225,13.125,-4.775,-45.975,65.125,71.425,30.925,-168.075,-244.475,1
95.49375,42.39375,67.79375,-57.60625,-103.20625,37.49375,113.29375,57.19375,11.59375,-3.10625,-46.00625,65.19375,98.19375,29.49375,-168.90625,-239.30625,1
96.56875,42.86875,65.76875,-57.93125,-102.53125,36.46875,117.96875,59.16875,12.66875,-3.73125,-45.03125,64.06875,99.36875,24.06875,-166.73125,-243.03125,1
93.65625,41.15625,64.05625,-60.24375,-50.74375,33.55625,120.75625,57.55625,8.05625,-13.24375,-49.94375,58.65625,92.35625,23.85625,-170.84375,-248.64375,1
94.73125,44.63125,67.63125,-56.16875,-72.36875,35.93125,124.53125,59.13125,10.83125,-20.36875,-49.46875,58.03125,87.23125,31.23125,-168.96875,-246.56875,1
92.5125,44.3125,67.2125,-56.1875,-62.8875,33.5125,126.3125,59.3125,14.6125,-7.1875,-48.2875,58.8125,67.8125,23.4125,-166.7875,-246.4875,1
94.8875,43.8875,70.5875,-56.1125,-81.2125,29.1875,131.2875,61.5875,16.7875,-9.3125,-46.9125,57.9875,94.8875,7.2875,-165.0125,-249.8125,1
93.56875,41.56875,68.56875,-55.93125,-89.93125,32.76875,128.66875,62.96875,15.46875,-11.33125,-47.73125,57.06875,99.06875,17.36875,-165.03125,-247.13125,1
92.2375,38.9375,64.8375,-55.4625,-78.3625,35.3375,126.3375,62.0375,15.1375,-12.3625,-47.9625,56.3375,86.6375,24.7375,-163.4625,-244.9625,1
91.91875,36.51875,66.71875,-53.38125,-98.08125,37.61875,137.51875,65.71875,16.61875,-10.38125,-48.48125,53.21875,93.31875,19.51875,-162.28125,-246.08125,1
90.2625,33.8625,71.1625,-50.2375,-79.0375,41.0625,132.2625,69.4625,13.2625,-12.5375,-50.9375,46.7625,89.0625,21.1625,-165.1375,-250.4375,1
89.9,29.8,72.6,-49.0,-70.2,40.7,132.4,68.5,15.6,-14.0,-51.1,40.9,92.2,17.4,-162.8,-252.9,1
92.375,28.775,74.175,-45.425,-99.625,44.975,135.475,72.575,15.275,-12.025,-49.625,38.875,97.575,18.875,-161.725,-250.525,1
91.09375,24.79375,72.69375,-44.50625,-80.60625,46.89375,135.09375,73.69375,11.09375,-15.90625,-51.20625,33.79375,98.99375,22.49375,-163.20625,-255.20625,1
89.0125,20.2125,72.6125,-45.7875,-52.9875,45.0125,136.0125,70.0125,10.4125,-18.8875,-53.1875,28.7125,96.1125,26.1125,-165.1875,-258.1875,1
90.36875,18.86875,72.56875,-43.03125,-76.43125,51.16875,138.26875,73.06875,16.36875,-13.83125,-50.23125,28.36875,92.56875,21.66875,-161.23125,-258.53125,1
93.6125,19.3125,72.4125,-41.4875,-83.4875,44.4125,140.5125,75.5125,23.5125,-3.5875,-45.8875,30.5125,72.4125,16.5125,-155.4875,-258.7875,1
94.9625,19.0625,73.4625,-44.2375,-87.9375,37.8625,138.7625,72.4625,20.6625,-4.8375,-46.6375,29.8625,98.4625,15.2625,-158.3375,-258.8375,1
96.04375,21.24375,73.94375,-44.15625,-103.75625,42.14375,139.14375,73.14375,18.24375,-9.35625,-46.95625,31.04375,104.34375,18.74375,-157.65625,-256.15625,1
90.51875,23.11875,69.91875,-45.38125,-89.28125,47.11875,136.61875,73.51875,13.41875,-12.18125,-51.38125,32.21875,97.41875,26.51875,-161.38125,-250.78125,1
88.75625,26.15625,68.65625,-47.14375,-87.34375,44.95625,134.65625,71.95625,12.65625,-10.74375,-52.24375,34.85625,92.65625,32.55625,-161.24375,-249.14375,1
90.6875,28.7875,71.4875,-47.3125,-78.2125,41.1875,136.2875,71.0875,16.6875,-5.8125,-51.1125,37.0875,74.3875,27.9875,-159.2125,-254.0125,1
90.11875,29.51875,69.51875,-47.08125,-101.88125,42.21875,139.31875,73.11875,16.61875,-1.98125,-52.18125,38.01875,91.41875,22.61875,-160.78125,-248.58125,1
91.3,31.5,70.4,-45.1,-82.5,43.4,146.3,75.1,10.7,-10.2,-54.8,37.2,78.5,21.9,-164.4,-249.3,1
92.475,35.575,74.975,-43.025,-86.125,42.175,134.875,74.275,14.375,-14.225,-54.125,37.275,88.175,17.175,-160.325,-253.525,1
91.83125,36.93125,76.83125,-42.96875,-101.26875,41.83125,132.83125,73.43125,11.13125,-6.96875,-55.46875,38.73125,100.63125,16.83125,-163.46875,-250.86875,1
93.65625,35.25625,76.35625,-42.54375,-89.94375,43.55625,135.85625,74.45625,7.25625,-4.64375,-56.64375,38.35625,92.25625,24.95625,-169.04375,-259.14375,1
92.14375,36.44375,74.74375,-42.25625,-80.65625,44.44375,138.24375,75.64375,2.84375,-4.05625,-58.95625,40.04375,87.74375,21.94375,-173.45625,-254.85625,1
91.25625,38.05625,72.45625,-42.84375,-73.84375,42.95625,147.95625,73.25625,0.45625,-9.04375,-59.84375,41.75625,85.25625,20.05625,-176.04375,-251.84375,1
91.84375,39.24375,72.44375,-43.55625,-84.55625,42.34375,152.94375,71.64375,-0.45625,-10.35625,-58.95625,43.84375,88.94375,22.74375,-176.05625,-252.05625,1
91.375,37.975,73.075,-46.225,-73.525,39.575,152.175,70.575,2.675,-4.725,-57.825,45.475,75.875,20.475,-177.525,-249.425,1
91.675,39.375,74.375,-45.725,-110.225,42.475,148.975,71.375,5.075,4.575,-57.325,49.475,80.275,25.475,-181.025,-238.825,1
91.4,37.9,72.9,-46.5,-90.6,43.2,144.5,69.8,-1.3,-2.4,-60.1,48.6,85.6,28.3,-186.7,-234.6,1
92.2625,34.7625,72.3625,-47.0375,-83.2375,42.2625,147.4625,67.7625,0.9625,-6.0375,-59.0375,45.0625,87.6625,39.3625,-185.7375,-248.8375,1
92.39375,31.79375,72.99375,-47.90625,-67.10625,40.29375,152.99375,66.09375,0.69375,-4.80625,-58.60625,44.49375,91.19375,26.99375,-186.60625,-254.90625,1
93.05625,30.15625,78.35625,-49.84375,-54.24375,36.05625,147.85625,64.15625,1.55625,-2.84375,-58.54375,46.05625,85.85625,20.75625,-188.74375,-249.64375,1
95.4625,35.1625,79.2625,-47.6375,-108.4375,37.7625,142.0625,64.7625,6.2625,5.2625,-55.0375,53.1625,86.4625,30.2625,-186.8375,-237.9375,1
95.46875,35.86875,75.86875,-48.93125,-108.73125,37.76875,144.36875,64.46875,9.56875,4.16875,-54.53125,54.26875,84.36875,29.76875,-185.83125,-237.93125,1
97.125,34.525,77.225,-52.375,-108.075,34.825,142.325,62.025,11.525,10.025,-53.475,54.925,89.725,22.325,-185.875,-236.775,1
94.10625,33.70625,75.70625,-54.39375,-63.99375,32.90625,140.20625,59.80625,12.10625,8.00625,-53.19375,53.90625,63.70625,22.60625,-184.69375,-240.49375,1
93.25,32.15,72.95,-56.55,-66.85,30.95,137.95,57.95,16.15,9.05,-51.85,52.35,74.55,22.65,-181.25,-243.45,1
93.29375,31.99375,71.19375,-55.30625,-73.40625,34.79375,138.79375,58.89375,16.79375,0.79375,-51.70625,49.99375,83.29375,23.99375,-180.60625,-242.80625,1
92.91875,32.31875,70.01875,-53.68125,-77.18125,37.31875,144.81875,59.21875,20.51875,7.11875,-49.88125,50.11875,64.31875,22.21875,-179.28125,-240.88125,1
93.825,27.825,68.425,-56.075,-99.275,37.825,145.825,56.425,28.325,13.625,-46.675,49.425,70.525,24.125,-173.275,-240.875,1
96.25625,27.25625,70.95625,-56.14375,-92.74375,30.75625,133.95625,57.85625,22.35625,8.15625,-45.74375,49.05625,90.35625,23.55625,-173.94375,-241.94375,1
96.6125,27.1125,70.8125,-56.4875,-86.8875,30.1125,136.1125,59.0125,20.8125,5.7125,-45.0875,48.7125,86.1125,22.4125,-172.7875,-242.2875,1
96.39375,28.29375,68.79375,-55.30625,-102.90625,35.29375,138.19375,59.69375,23.09375,8.89375,-43.10625,49.39375,79.39375,25.49375,-171.30625,-240.30625,1
99.51875,28.21875,70.41875,-55.88125,-103.28125,35.31875,139.81875,59.01875,23.51875,7.81875,-40.48125,48.81875,66.81875,25.51875,-168.28125,-236.88125,1
101.75,27.75,71.65,-56.75,-120.45,35.95,136.85,60.05,29.05,-1.45,-36.65,46.85,81.95,21.85,-159.85,-238.55,1
96.45,21.15,65.45,-62.95,-52.15,28.85,133.75,54.15,28.85,3.15,-38.65,41.95,76.75,11.65,-161.65,-246.75,1
97.8,19.3,65.6,-64.3,-46.7,25.4,134.7,51.9,31.6,3.3,-36.4,40.3,79.1,6.8,-158.7,-249.7,1
102.81875,20.41875,69.31875,-62.08125,-80.68125,28.11875,137.91875,54.41875,34.01875,1.01875,-33.98125,39.71875,83.31875,10.11875,-154.68125,-249.78125,1
104.41875,20.01875,68.21875,-61.98125,-82.78125,29.81875,132.51875,56.41875,36.31875,6.91875,-33.08125,38.91875,76.01875,11.61875,-153.18125,-250.18125,1
107.8,19.3,69.9,-63.6,-51.8,29.1,125.3,49.8,35.4,2.0,-31.9,37.6,64.5,11.6,-151.9,-253.1,1
113.1875,22.4875,72.1875,-63.2125,-102.3125,27.7875,124.2875,48.6875,37.3875,1.9875,-28.3125,40.7875,100.4875,2.2875,-148.7125,-249.0125,1
111.58125,22.18125,65.48125,-64.71875,-89.51875,26.58125,132.28125,47.88125,36.08125,-1.51875,-28.31875,39.68125,88.98125,14.68125,-149.21875,-252.11875,1
110.26875,21.16875,62.06875,-66.23125,-66.73125,25.76875,133.06875,46.46875,34.56875,-9.53125,-27.83125,38.66875,81.46875,19.06875,-148.03125,-254.23125,1
112.11875,19.91875,64.51875,-67.58125,-66.98125,24.71875,132.21875,46.61875,39.01875,-1.58125,-25.98125,40.71875,72.41875,9.61875,-145.58125,-254.18125,1
114.68125,19.48125,63.78125,-67.61875,-94.91875,22.58125,128.88125,47.28125,43.98125,1.48125,-23.31875,41.48125,94.98125,3.78125,-140.01875,-256.51875,1
118.71875,24.21875,66.41875,-63.78125,-129.48125,22.91875,131.71875,50.21875,46.11875,3.51875,-20.68125,46.01875,93.01875,0.11875,-137.28125,-251.78125,1
116.59375,24.99375,67.79375,-63.70625,-118.10625,22.19375,130.19375,49.49375,46.69375,3.39375,-21.90625,48.19375,71.39375,6.19375,-137.20625,-246.20625,1
110.09375,18.59375,64.29375,-68.70625,-71.90625,19.39375,120.19375,43.89375,41.59375,-2.20625,-27.50625,44.19375,82.49375,18.39375,-142.30625,-250.50625,1
106.81875,18.41875,65.51875,-66.98125,-67.68125,20.41875,119.71875,44.71875,37.51875,0.01875,-29.88125,44.11875,88.01875,14.81875,-145.78125,-249.78125,1
100.55625,20.45625,65.05625,-61.54375,-87.14375,32.45625,124.35625,50.35625,35.65625,-2.04375,-30.84375,45.45625,83.25625,14.95625,-146.14375,-244.84375,1
95.36875,23.56875,65.46875,-57.53125,-89.53125,31.86875,125.16875,51.66875,38.56875,-8.13125,-29.93125,45.26875,88.26875,12.76875,-141.93125,-250.93125,1
91.9375,27.6375,64.7375,-56.8625,-88.0625,20.6375,125.1375,50.3375,40.8375,-3.4625,-30.2625,47.7375,86.9375,14.8375,-141.1625,-250.9625,1
89.7625,32.2625,60.4625,-52.8375,-100.9375,27.8625,131.3625,53.3625,42.3625,-0.7375,-31.3375,49.5625,66.6625,21.1625,-140.7375,-248.2375,1
93.45625,35.75625,63.55625,-51.34375,-109.14375,30.65625,117.95625,50.95625,43.05625,-1.64375,-31.74375,50.15625,69.25625,24.35625,-139.24375,-246.04375,1
96.575,35.575,60.275,-52.425,-103.125,28.875,101.775,45.275,41.375,-3.425,-34.625,48.075,97.175,25.975,-139.325,-248.025,1
97.7625,35.3625,57.1625,-51.6375,-96.9375,28.0625,115.9625,46.8625,40.7625,0.2625,-37.6375,46.3625,91.4625,21.1625,-142.0375,-252.9375,1
100.1375,37.2375,58.3375,-48.0625,-117.4625,32.9375,123.9375,53.0375,40.0375,0.8375,-38.5625,46.7375,85.6375,18.4375,-142.4625,-250.7625,1
101.79375,38.99375,58.79375,-46.40625,-152.60625,37.89375,120.99375,55.39375,40.79375,6.99375,-37.90625,48.69375,85.39375,23.79375,-140.50625,-242.10625,1
102.1125,36.8125,58.5125,-46.9875,-126.8875,38.6125,118.1125,54.9125,37.1125,-2.7875,-38.9875,45.4125,85.0125,25.2125,-140.2875,-245.8875,1
102.25,33.85,59.35,-47.35,-86.25,38.45,123.35,55.85,27.95,-13.25,-42.25,41.35,91.05,20.25,-149.45,-255.15,1
102.03125,32.73125,60.03125,-46.66875,-82.56875,38.43125,115.23125,56.23125,27.03125,-7.66875,-42.86875,42.33125,88.93125,19.53125,-150.06875,-252.66875,1
103.9625,34.3625,64.0625,-42.4375,-85.0375,39.7625,111.9625,60.1625,25.0625,-12.3375,-43.0375,41.8625,90.7625,16.2625,-149.7375,-255.6375,1
104.3375,33.2375,65.4375,-40.7625,-100.3625,43.2375,115.6375,61.0375,24.6375,-12.8625,-43.8625,40.9375,91.4375,24.6375,-150.6625,-256.0625,1
104.4125,31.2125,63.7125,-42.1875,-98.1875,42.6125,116.5125,58.8125,25.5125,-13.5875,-43.9875,39.0125,95.7125,25.3125,-150.2875,-254.5875,1
104.23125,35.93125,62.73125,-42.66875,-102.96875,41.63125,111.53125,57.03125,24.53125,-8.16875,-43.96875,42.73125,87.73125,26.93125,-152.96875,-244.26875,1
107.175,41.275,65.675,-38.125,-110.825,46.675,116.475,59.775,23.175,-12.225,-41.525,43.975,63.375,34.575,-150.825,-248.625,1
105.20625,41.50625,67.90625,-37.89375,-90.89375,45.70625,122.80625,59.40625,16.80625,-15.89375,-44.09375,41.30625,69.90625,27.30625,-153.59375,-255.49375,1
105.25625,44.35625,68.15625,-37.34375,-112.64375,45.65625,115.35625,58.35625,15.85625,-17.74375,-43.44375,43.35625,94.85625,27.95625,-153.34375,-254.64375,1
104.11875,46.11875,63.71875,-38.68125,-119.08125,46.11875,109.11875,57.01875,13.71875,-22.08125,-42.28125,46.41875,104.61875,36.41875,-156.18125,-249.08125,1
99.85625,45.05625,58.15625,-43.14375,-111.54375,42.65625,110.15625,55.25625,21.05625,-16.04375,-38.74375,49.35625,95.75625,30.35625,-150.64375,-247.54375,1
99.40625,46.60625,57.30625,-45.49375,-123.59375,40.60625,110.90625,55.10625,23.00625,-8.59375,-35.39375,54.70625,93.20625,23.80625,-149.09375,-242.49375,1
98.23125,49.43125,59.83125,-45.16875,-114.96875,40.63125,113.33125,56.13125,18.03125,-9.06875,-36.86875,56.73125,88.63125,24.93125,-156.46875,-243.36875,1
95.325,49.825,61.625,-44.675,-114.175,45.425,113.625,57.925,14.425,-10.275,-39.175,56.125,91.325,23.725,-156.675,-244.375,1
94.6875,49.1875,62.5875,-46.2125,-123.0125,44.5875,113.4875,54.8875,16.6875,-7.9125,-38.7125,56.9875,95.5875,24.7875,-154.7125,-242.9125,1
96.4375,47.2375,64.0375,-48.1625,-102.5625,38.6375,115.5375,54.6375,15.2375,-5.9625,-37.1625,58.3375,73.2375,27.9375,-157.1625,-240.2625,1
98.40625,44.40625,63.30625,-51.89375,-113.09375,35.40625,117.20625,52.70625,13.70625,-7.69375,-35.39375,58.60625,93.90625,26.70625,-156.89375,-239.39375,1
98.56875,39.56875,64.06875,-55.73125,-129.03125,39.36875,105.86875,50.46875,18.66875,-1.93125,-32.63125,59.76875,99.06875,35.16875,-154.23125,-237.03125,1
96.89375,36.59375,62.89375,-57.60625,-129.00625,39.09375,108.49375,49.89375,21.09375,0.19375,-30.50625,59.19375,95.29375,33.99375,-149.60625,-236.90625,1
92.73125,35.73125,60.93125,-57.66875,-100.86875,36.53125,107.83125,50.93125,16.13125,-11.26875,-32.56875,54.53125,111.03125,31.53125,-152.26875,-243.26875,1
91.93125,36.73125,60.53125,-57.56875,-73.06875,32.93125,112.53125,52.73125,15.93125,-8.36875,-32.86875,53.53125,97.13125,19.83125,-154.16875,-247.76875,1
94.26875,42.36875,61.46875,-54.23125,-94.43125,34.36875,120.26875,54.06875,18.46875,-5.83125,-31.23125,57.36875,77.66875,21.76875,-151.93125,-244.43125,1
91.7375,45.0375,58.1375,-52.9625,-98.4625,34.2375,113.8375,53.6375,13.8375,-9.5625,-35.0625,56.9375,107.2375,25.2375,-155.7625,-248.0625,1
92.7,45.8,62.3,-49.0,-82.0,40.2,111.4,56.9,11.5,-11.3,-38.0,55.9,95.4,20.0,-158.4,-253.4,1
92.59375,46.69375,58.69375,-47.90625,-76.90625,39.79375,121.29375,57.59375,6.59375,-17.10625,-41.40625,54.69375,100.59375,21.49375,-162.30625,-254.40625,1
94.2875,50.9875,57.3875,-44.8125,-103.9125,38.8875,119.5875,60.8875,6.3875,-11.4125,-42.5125,59.1875,102.8875,23.3875,-165.0125,-246.2125,1
94.28125,53.58125,58.78125,-42.61875,-117.31875,39.68125,120.68125,62.18125,7.78125,-4.91875,-43.61875,63.48125,95.08125,17.48125,-166.51875,-238.01875,1
95.14375,55.14375,60.04375,-39.85625,-140.45625,39.94375,119.64375,62.74375,9.34375,-1.55625,-43.75625,64.94375,96.44375,24.74375,-164.65625,-237.85625,1
93.375,57.475,61.675,-35.325,-141.725,47.775,116.075,66.875,8.275,-2.325,-46.325,65.275,78.975,34.075,-165.925,-238.225,1
86.4875,55.7875,57.5875,-36.2125,-99.4125,47.0875,116.5875,63.8875,2.1875,-8.3125,-53.7125,60.4875,93.4875,31.5875,-173.3125,-244.2125,1
83.98125,58.28125,56.28125,-33.51875,-78.31875,48.98125,112.88125,61.88125,1.08125,-8.51875,-57.21875,59.58125,81.18125,36.68125,-176.31875,-246.91875,1
86.5625,59.4625,56.0625,-31.8375,-88.9375,49.7625,114.1625,64.6625,0.9625,-8.3375,-58.3375,59.2625,96.0625,22.1625,-175.6375,-246.0375,1
90.1375,58.9375,58.4375,-30.0625,-101.6625,48.0375,121.1375,66.4375,-0.0625,-11.3625,-58.6625,58.4375,96.5375,24.6375,-175.8625,-245.0625,1
93.1375,56.8375,65.5375,-29.6625,-98.6625,48.2375,112.2375,67.8375,-0.6625,-13.0625,-58.4625,57.3375,89.5375,34.0375,-174.9625,-249.2625,1
93.79375,53.09375,64.59375,-31.20625,-84.80625,48.09375,112.09375,66.69375,-2.80625,-14.80625,-59.10625,55.39375,93.09375,33.79375,-178.10625,-249.80625,1
96.975,53.875,65.975,-29.925,-85.225,48.575,112.275,66.375,-3.225,-11.225,-57.425,57.775,69.475,36.675,-178.425,-242.525,1
98.90625,56.40625,63.30625,-27.89375,-120.39375,53.10625,120.60625,68.50625,-2.89375,-17.39375,-55.69375,58.40625,80.70625,41.70625,-177.09375,-240.29375,1
96.48125,52.88125,58.58125,-31.51875,-104.11875,54.08125,123.28125,66.98125,-4.91875,-22.21875,-59.01875,54.38125,104.18125,37.08125,-180.01875,-246.11875,1
96.90625,54.70625,61.70625,-32.39375,-111.59375,47.40625,123.00625,66.60625,-1.59375,-20.39375,-58.19375,56.00625,100.90625,41.20625,-178.09375,-246.19375,1
99.2125,59.5125,66.8125,-29.3875,-151.5875,50.5125,128.7125,69.8125,-0.2875,-23.4875,-56.6875,58.5125,103.3125,46.2125,-178.0875,-243.0875,1
95.15,58.35,69.15,-30.85,-84.15,48.75,128.45,68.15,-7.45,-28.25,-61.45,56.35,68.65,43.95,-182.25,-242.55,1
94.64375,64.24375,75.04375,-25.35625,-92.15625,53.64375,105.84375,73.04375,-5.55625,-23.95625,-60.45625,60.74375,54.94375,43.84375,-181.95625,-236.55625,1
88.01875,57.01875,64.21875,-33.28125,-74.38125,50.11875,113.41875,66.81875,-4.78125,-20.58125,-66.18125,56.01875,94.71875,33.31875,-186.08125,-238.38125,1
87.3,59.5,59.4,-34.9,-90.8,43.8,126.2,65.7,-0.6,-13.2,-65.0,58.9,92.4,29.3,-183.9,-234.1,1
90.5,60.3,60.1,-30.7,-84.5,53.1,127.4,71.2,-10.8,-30.4,-65.4,54.5,93.9,47.2,-189.0,-247.4,1
93.96875,61.26875,64.46875,-31.03125,-92.53125,50.76875,123.96875,69.76875,-11.13125,-26.93125,-61.93125,56.36875,86.26875,49.66875,-186.93125,-246.03125,1
97.60625,59.60625,66.00625,-35.19375,-90.89375,46.70625,120.40625,66.30625,-6.29375,-22.39375,-58.39375,57.90625,84.30625,39.50625,-182.69375,-242.49375,1
102.0625,59.8625,67.7625,-36.3375,-100.4375,48.4625,126.0625,65.4625,-8.9375,-24.4375,-55.8375,57.5625,83.2625,38.7625,-181.2375,-242.0375,1
103.05625,57.25625,69.25625,-39.24375,-90.74375,47.35625,122.35625,63.15625,-9.64375,-26.34375,-53.74375,55.95625,86.85625,37.55625,-179.74375,-243.34375,1
107.95,54.85,72.95,-41.05,-97.25,42.75,118.25,65.15,-3.95,-29.95,-48.75,54.85,85.75,39.15,-171.85,-248.85,1
111.5875,52.0875,74.2875,-41.5125,-100.8125,43.5875,117.7875,65.9875,-1.8125,-32.0125,-45.6125,52.8875,87.3875,34.2875,-167.8125,-250.3125,1
113.24375,47.24375,75.54375,-44.45625,-71.65625,40.24375,120.94375,63.74375,-0.15625,-31.05625,-44.85625,50.84375,74.64375,20.94375,-166.45625,-248.75625,1
114.975,45.375,78.075,-45.425,-87.425,38.075,118.975,62.075,-1.125,-33.525,-44.225,49.375,93.175,25.375,-165.125,-248.625,1
115.58125,44.38125,77.78125,-44.41875,-99.71875,39.78125,122.08125,63.08125,0.58125,-33.11875,-42.21875,49.08125,99.08125,23.88125,-162.01875,-253.81875,1
113.49375,42.19375,76.69375,-47.60625,-90.70625,28.89375,126.89375,61.69375,4.49375,-29.30625,-41.10625,48.29375,100.39375,22.59375,-160.50625,-256.40625,1
113.49375,40.99375,77.39375,-50.00625,-81.50625,27.79375,127.09375,59.29375,5.99375,-30.70625,-40.30625,46.69375,100.19375,22.19375,-160.80625,-257.80625,1
116.25625,40.75625,77.95625,-50.94375,-74.94375,29.15625,124.75625,56.45625,6.45625,-32.74375,-37.64375,46.15625,88.45625,24.05625,-158.24375,-255.94375,1
124.55,43.85,87.45,-49.45,-106.15,27.95,126.15,59.05,13.15,-26.45,-30.35,49.55,52.45,31.25,-149.45,-253.55,1
124.34375,35.94375,88.44375,-56.15625,-105.65625,25.64375,108.84375,56.24375,14.54375,-27.45625,-29.05625,45.94375,104.94375,18.04375,-145.65625,-258.95625,1
118.55625,26.75625,75.25625,-63.24375,-50.34375,20.35625,118.55625,54.35625,13.25625,-31.84375,-31.84375,39.15625,113.05625,10.75625,-147.24375,-265.54375,1
117.675,22.775,72.775,-67.025,-45.825,15.975,131.275,54.775,17.775,-29.025,-31.725,36.375,108.775,5.475,-143.025,-267.025,1
120.29375,17.49375,75.69375,-68.90625,-62.20625,18.79375,128.79375,54.99375,19.69375,-27.40625,-31.10625,34.19375,112.09375,15.29375,-139.50625,-268.20625,1
126.58125,14.48125,78.18125,-69.21875,-82.91875,17.58125,127.88125,54.68125,23.28125,-24.41875,-26.81875,34.58125,121.78125,4.68125,-131.71875,-268.61875,1
128.2125,14.1125,80.1125,-69.6875,-87.2875,15.3125,132.7125,54.8125,24.6125,-24.3875,-24.8875,33.9125,120.3125,1.7125,-129.4875,-270.0875,1
129.15,13.95,82.95,-70.45,-69.35,15.65,128.65,54.85,25.45,-24.85,-24.05,32.65,108.55,0.15,-130.25,-273.05,1
129.375,14.675,83.575,-71.825,-71.825,14.975,122.275,53.875,28.375,-23.125,-22.725,33.475,108.875,0.875,-128.125,-272.725,1
126.39375,14.89375,79.69375,-74.80625,-85.60625,8.69375,130.69375,51.59375,30.19375,-20.60625,-21.70625,35.59375,126.79375,-4.60625,-125.30625,-271.90625,1
124.38125,15.28125,78.98125,-76.01875,-76.71875,9.08125,124.18125,50.18125,29.48125,-20.01875,-21.61875,36.98125,126.38125,-4.81875,-124.61875,-271.11875,1
125.2625,16.1625,77.4625,-76.1375,-102.4375,10.5625,122.1625,49.3625,30.5625,-18.4375,-19.9375,38.3625,135.5625,1.9625,-121.5375,-268.9375,1
124.9375,15.1375,77.1375,-76.1625,-104.5625,12.5375,122.1375,50.4375,32.8375,-19.1625,-18.9625,38.7375,129.2375,1.9375,-119.9625,-266.2625,1
120.23125,10.43125,73.83125,-78.26875,-52.96875,11.23125,118.93125,48.03125,27.13125,-24.16875,-23.56875,33.63125,130.33125,-1.26875,-123.66875,-269.86875,1
121.1375,10.2375,75.2375,-75.8625,-61.1625,11.5375,122.1375,50.4375,26.5375,-19.8625,-23.7625,32.4375,131.7375,-1.8625,-124.2625,-274.6625,1
121.7875,10.9875,76.7875,-72.0125,-78.4125,13.7875,122.8875,51.7875,27.7875,-10.1125,-24.3125,33.8875,126.2875,-4.2125,-123.3125,-273.6125,1
124.24375,13.54375,77.84375,-66.65625,-95.65625,17.94375,126.74375,56.64375,31.84375,-15.85625,-21.75625,35.24375,113.34375,-9.15625,-117.35625,-270.95625,1
122.2625,16.2625,74.0625,-66.6375,-71.1375,12.6625,122.7625,53.6625,27.9625,-19.7375,-24.4375,35.0625,125.5625,-16.7375,-123.2375,-268.3375,1
121.15,17.15,72.05,-67.05,-57.55,13.85,117.15,51.95,19.75,-27.45,-28.75,33.75,143.55,-12.25,-130.35,-266.95,1
121.14375,15.44375,69.44375,-64.15625,-68.45625,26.64375,115.54375,51.34375,22.04375,-31.45625,-29.35625,29.64375,139.84375,5.94375,-128.35625,-275.25625,1
121.5875,14.5875,68.1875,-64.8125,-74.1125,20.2875,114.0875,50.5875,26.0875,-20.3125,-29.0125,31.2875,140.6875,1.5875,-127.5125,-273.2125,1
124.30625,14.80625,68.50625,-66.09375,-77.49375,7.10625,119.20625,51.70625,32.30625,-12.29375,-26.69375,34.60625,137.20625,-11.99375,-123.59375,-271.59375,1
123.0125,15.2125,67.8125,-66.6875,-77.4875,9.1125,118.7125,49.6125,34.0125,-6.3875,-27.2875,35.4125,135.1125,-16.6875,-122.8875,-270.5875,1
119.96875,16.76875,66.56875,-63.93125,-84.53125,13.96875,119.16875,51.56875,35.86875,-2.73125,-27.33125,36.86875,126.86875,-16.63125,-122.33125,-270.13125,1
118.5375,20.0375,68.2375,-60.1625,-82.0625,18.5375,119.7375,54.2375,18.7375,-4.4625,-32.3625,37.7375,127.0375,-3.1625,-134.9625,-265.6625,1
115.85,21.75,65.25,-60.05,-92.05,21.65,123.35,53.95,16.25,-0.25,-34.75,38.25,132.25,-1.75,-137.85,-261.85,1
114.8625,23.4625,65.8625,-59.0375,-86.7375,22.8625,120.6625,55.0625,19.4625,-8.8375,-34.0375,37.7625,127.5625,0.7625,-136.1375,-263.5375,1
114.59375,24.89375,69.19375,-57.60625,-80.30625,18.89375,114.89375,53.99375,16.39375,-9.70625,-33.60625,39.09375,132.59375,-4.20625,-137.00625,-262.10625,1
113.75,23.75,70.65,-56.65,-83.25,20.95,116.05,56.05,18.35,-8.95,-33.15,38.15,134.35,-8.95,-135.55,-265.55,1
112.60625,23.90625,67.20625,-56.29375,-91.59375,20.00625,119.60625,55.60625,20.10625,-5.99375,-31.79375,38.70625,132.20625,-7.49375,-133.79375,-262.99375,1
112.74375,21.84375,64.34375,-59.95625,-91.15625,20.54375,117.44375,53.94375,23.54375,-1.95625,-30.05625,40.84375,124.44375,-3.75625,-133.35625,-259.45625,1
114.98125,23.68125,64.88125,-58.01875,-107.11875,24.18125,118.18125,56.68125,28.98125,-2.61875,-25.81875,44.58125,104.78125,-1.61875,-128.91875,-256.81875,1
113.79375,21.89375,61.59375,-59.70625,-101.20625,21.29375,119.49375,54.29375,26.99375,-4.50625,-27.20625,43.49375,125.49375,-6.20625,-131.30625,-258.20625,1
112.78125,24.08125,62.08125,-57.61875,-100.31875,22.28125,118.78125,55.28125,22.58125,-4.81875,-29.41875,44.48125,129.28125,-6.61875,-135.41875,-257.41875,1
110.975,23.575,60.675,-56.325,-90.825,25.975,113.575,55.575,21.575,-7.025,-31.525,43.275,123.675,2.775,-137.225,-258.725,1
110.7125,21.4125,60.9125,-56.3875,-80.5875,26.1125,114.8125,56.3125,23.2125,-7.5875,-32.0875,42.1125,118.6125,-0.3875,-137.8875,-259.2875,1
111.84375,24.84375,61.44375,-53.65625,-94.95625,27.24375,117.44375,58.44375,24.94375,-7.05625,-31.35625,43.44375,115.44375,-2.65625,-136.45625,-258.95625,1
113.5125,26.1125,63.9125,-51.4875,-110.0875,31.8125,122.8125,61.2125,25.6125,-7.9875,-31.4875,43.1125,109.9125,-0.7875,-136.2875,-259.8875,1
115.35625,26.45625,67.05625,-49.94375,-124.94375,31.05625,127.25625,63.45625,26.95625,-7.44375,-30.14375,43.65625,104.45625,1.85625,-135.84375,-259.24375,1
117.1125,24.8125,69.6125,-51.0875,-114.8875,27.4125,126.9125,64.9125,27.9125,-10.2875,-27.5875,43.3125,90.8125,4.9125,-135.0875,-258.7875,1
117.075,19.875,69.575,-56.025,-77.325,24.975,107.975,60.375,23.475,-15.225,-28.925,38.675,118.875,-2.825,-137.625,-262.925,1
116.85625,21.35625,67.25625,-55.34375,-74.04375,26.05625,109.05625,61.65625,19.85625,-19.34375,-29.84375,37.95625,118.85625,1.85625,-139.44375,-262.74375,1
118.34375,24.24375,65.84375,-53.25625,-91.75625,28.14375,116.64375,63.54375,20.14375,-17.75625,-29.05625,39.04375,114.24375,3.74375,-140.95625,-261.15625,1
120.53125,26.03125,66.73125,-51.56875,-116.06875,29.23125,124.63125,65.43125,24.93125,-14.96875,-26.66875,38.63125,113.13125,1.73125,-136.96875,-264.76875,1
118.675,25.675,67.875,-52.725,-96.625,26.575,126.475,64.575,27.975,-8.625,-26.925,37.975,94.375,-3.825,-136.025,-265.425,1
116.58125,25.78125,69.08125,-53.41875,-84.11875,24.48125,130.38125,63.38125,25.18125,-4.11875,-29.11875,38.68125,77.58125,-5.91875,-138.91875,-255.51875,1
114.80625,26.10625,69.90625,-50.69375,-86.89375,31.70625,119.70625,64.00625,20.90625,-20.29375,-32.49375,33.00625,117.90625,-0.39375,-141.29375,-265.99375,1
113.225,26.825,71.025,-49.875,-79.875,31.525,119.725,65.025,18.925,-25.975,-33.975,32.025,110.125,5.725,-139.475,-264.975,1
108.73125,28.03125,69.83125,-50.16875,-97.56875,28.73125,122.63125,63.03125,22.13125,-9.56875,-34.06875,35.73125,102.03125,9.93125,-142.06875,-257.36875,1
108.325,27.125,71.525,-49.475,-109.975,29.025,124.125,64.025,29.425,-3.275,-30.775,37.225,101.725,2.725,-138.075,-263.675,1
106.0625,24.8625,67.9625,-51.2375,-77.4375,26.9625,122.8625,62.4625,28.2625,-13.2375,-29.8375,35.7625,103.7625,-1.6375,-136.8375,-268.7375,1
105.84375,26.44375,66.04375,-50.95625,-83.35625,31.74375,122.04375,61.64375,25.34375,-13.55625,-29.05625,38.54375,103.24375,-0.15625,-138.65625,-265.15625,1
106.7875,24.7875,67.4875,-51.8125,-95.9125,29.5875,126.2875,59.7875,26.4875,-5.6125,-27.3125,42.4875,100.7875,-7.5125,-139.5125,-256.8125,1
108.68125,22.08125,72.18125,-50.01875,-121.21875,31.18125,132.18125,64.38125,29.08125,-9.11875,-24.01875,42.18125,94.78125,6.98125,-136.41875,-262.91875,1
105.6375,20.9375,69.8375,-51.3625,-104.8625,31.7375,130.6375,64.4375,31.9375,-10.7625,-23.9625,39.7375,91.2375,7.4375,-134.0625,-268.5625,1
102.46875,22.56875,67.16875,-52.53125,-103.83125,29.06875,122.86875,61.76875,34.86875,3.96875,-24.93125,42.16875,90.56875,5.46875,-137.33125,-264.33125,1
101.39375,25.49375,68.39375,-52.30625,-94.00625,28.59375,123.49375,61.89375,33.99375,-3.40625,-26.30625,42.29375,91.49375,4.19375,-139.40625,-265.80625,1
101.36875,28.96875,69.86875,-51.73125,-83.23125,28.96875,125.66875,61.16875,29.16875,-12.23125,-27.53125,43.56875,85.96875,3.66875,-139.93125,-263.73125,1
103.9375,34.0375,74.3375,-48.1625,-94.5625,33.5375,133.2375,64.5375,25.7375,-15.9625,-27.5625,45.8375,73.7375,1.6375,-141.0625,-263.2625,1
105.8125,38.0125,73.8125,-47.7875,-129.0875,33.6125,112.0125,62.5125,30.0125,-7.8875,-26.4875,50.1125,98.9125,5.3125,-140.3875,-258.4875,1
103.09375,36.59375,68.49375,-52.10625,-98.80625,28.29375,112.89375,57.89375,29.79375,-5.40625,-29.40625,49.99375,95.09375,3.29375,-142.60625,-257.10625,1
100.65,35.45,63.15,-55.25,-86.25,27.45,112.65,53.35,34.45,-2.35,-30.55,50.25,87.55,4.55,-141.15,-253.95,1
102.25625,37.25625,63.85625,-55.24375,-128.54375,25.35625,115.65625,54.05625,38.75625,5.35625,-27.74375,55.75625,92.95625,6.25625,-139.14375,-246.84375,1
103.23125,40.83125,65.33125,-53.36875,-117.56875,27.13125,119.63125,56.83125,34.53125,2.83125,-25.26875,60.43125,56.03125,10.63125,-138.86875,-242.36875,1
98.98125,37.58125,59.28125,-57.51875,-113.71875,26.48125,113.18125,51.78125,33.48125,9.68125,-26.91875,59.68125,79.28125,10.48125,-140.81875,-240.91875,1
96.35625,37.55625,54.55625,-58.34375,-107.24375,24.95625,112.35625,48.95625,28.05625,2.25625,-27.44375,56.85625,104.35625,10.75625,-143.14375,-240.84375,1
99.0875,39.5875,53.5875,-57.3125,-108.8125,19.6875,112.5875,49.0875,33.4875,-0.4125,-22.8125,56.6875,102.5875,3.1875,-136.5125,-243.7125,1
98.2,37.9,52.3,-56.7,-127.4,22.2,113.7,49.3,37.4,8.3,-21.1,57.3,101.3,4.7,-132.7,-244.7,1
92.49375,31.19375,51.09375,-59.10625,-112.60625,21.39375,111.89375,48.89375,42.29375,13.89375,-20.90625,57.19375,95.39375,5.39375,-131.50625,-247.00625,1
86.775,29.075,50.975,-58.825,-98.525,21.575,109.775,50.175,44.475,17.975,-22.525,58.775,86.875,3.575,-134.925,-245.225,1
86.46875,28.96875,52.16875,-55.63125,-124.73125,25.16875,120.76875,54.56875,44.16875,17.16875,-23.43125,60.16875,88.06875,4.16875,-136.33125,-241.73125,1
85.2125,29.2125,52.5125,-54.7875,-112.9875,25.7125,115.4125,55.0125,41.9125,13.5125,-26.1875,60.0125,86.5125,7.9125,-138.7875,-240.1875,1
85.6375,30.2375,56.7375,-53.6625,-89.2625,27.6375,113.4375,56.4375,42.5375,15.2375,-27.6625,61.0375,49.5375,9.7375,-139.1625,-238.4625,1
83.99375,27.29375,55.09375,-56.30625,-93.10625,25.19375,110.29375,55.29375,42.49375,14.79375,-31.10625,58.39375,80.09375,4.29375,-139.10625,-237.60625,1
85.8375,27.4375,56.0375,-57.4625,-123.2625,26.8375,109.6375,54.4375,40.5375,12.1375,-33.7625,57.5375,108.2375,6.2375,-140.9625,-229.4625,1
85.59375,28.49375,53.49375,-57.60625,-105.30625,28.99375,113.49375,54.69375,39.29375,13.49375,-35.30625,56.29375,93.19375,8.39375,-143.20625,-234.00625,1
85.50625,28.40625,50.50625,-60.89375,-87.99375,16.80625,114.40625,52.00625,41.70625,18.30625,-35.09375,55.10625,89.10625,14.40625,-141.79375,-240.49375,1
